File: AbsorptionAnalysis/Absorption - Correction Files/Absorption BG Susbtraction/DodecaneCryostatFilm/Dodecane_KIT_N2_D.txt
Dodecane_KIT_N2_D
Wavelength (nm),Abs
2655,0.0802625
2646,0.0813021
2637,0.0818658
2628,0.080343
2619,0.0822539
2610,0.082263
2601,0.0820612
2592,0.0831662
2583,0.0816102
2574,0.0824119
2565,0.0811856
2556,0.0824653
2547,0.083242
2538,0.0828389
2529,0.0830743
2520,0.0833103
2511,0.0834916
2502,0.0839373
2493,0.0840122
2484,0.0844555
2475,0.0846749
2466,0.0849116
2457,0.085351
2448,0.0856188
2439,0.0861565
2430,0.0864955
2421,0.0869871
2412,0.0874203
2403,0.0880552
2394,0.0887364
2385,0.0892206
2376,0.0897222
2367,0.090406
2358,0.0913753
2349,0.0919455
2340,0.0929242
2331,0.0934975
2322,0.094697
2313,0.0955371
2304,0.0967861
2295,0.0978563
2286,0.0986903
2277,0.0996894
2268,0.101412
2259,0.102956
2250,0.104136
2241,0.105387
2232,0.106973
2223,0.108785
2214,0.110748
2205,0.112806
2196,0.114353
2187,0.116195
2178,0.118173
2169,0.120407
2160,0.122424
2151,0.124744
2142,0.126974
2133,0.129497
2124,0.132091
2115,0.134611
2106,0.13742
2097,0.140421
2088,0.143262
2079,0.146521
2070,0.14974
2061,0.153245
2052,0.156757
2043,0.160253
2034,0.163932
2025,0.167509
2016,0.171409
2007,0.17488
1998,0.178569
1989,0.182119
1980,0.185443
1971,0.188706
1962,0.191747
1953,0.194928
1944,0.198136
1935,0.201325
1926,0.204489
1917,0.207729
1908,0.210807
1899,0.214396
1890,0.217691
1881,0.22023
1872,0.222846
1863,0.225101
1854,0.226802
1845,0.227745
1836,0.228414
1827,0.227978
1818,0.227251
1809,0.225959
1800,0.224103
1791,0.221854
1782,0.219253
1773,0.216325
1764,0.213471
1755,0.210518
1746,0.207519
1737,0.204454
1728,0.201161
1719,0.197809
1710,0.194461
1701,0.19076
1692,0.187062
1683,0.183263
1674,0.179501
1665,0.175913
1656,0.17224
1647,0.168689
1638,0.165158
1629,0.161666
1620,0.158453
1611,0.155368
1602,0.152477
1593,0.150098
1584,0.147869
1575,0.146012
1566,0.144317
1557,0.142876
1548,0.141629
1539,0.14052
1530,0.139593
1521,0.138735
1512,0.138035
1503,0.137537
1494,0.137015
1485,0.136492
1476,0.136173
1467,0.135891
1458,0.135579
1449,0.135331
1440,0.135114
1431,0.134891
1422,0.134637
1413,0.134463
1404,0.134348
1395,0.134187
1386,0.133972
1377,0.133782
1368,0.133532
1359,0.13336
1350,0.133247
1341,0.133189
1332,0.133188
1323,0.133292
1314,0.133496
1305,0.133839
1296,0.134189
1287,0.134691
1278,0.135406
1269,0.136227
1260,0.137233
1251,0.138408
1242,0.139746
1233,0.141286
1224,0.142992
1215,0.144966
1206,0.147198
1197,0.149481
1188,0.152288
1179,0.155119
1170,0.158063
1161,0.160954
1152,0.164108
1143,0.167601
1134,0.171767
1125,0.176595
1116,0.181689
1107,0.186626
1098,0.190736
1089,0.193572
1080,0.195368
1071,0.19696
1062,0.199196
1053,0.202176
1044,0.205591
1035,0.208349
1026,0.209674
1017,0.209227
1008,0.207654
999,0.205501
990,0.202458
981,0.199089
972,0.19604
963,0.193429
954,0.190795
945,0.187774
936,0.184324
927,0.180829
918,0.177254
909,0.173699
900,0.170415
891,0.164652
882,0.167453
873,0.164727
864,0.164283
855,0.161769
846,0.162007
837,0.162636
828,0.163651
819,0.163947
810,0.165628
801,0.168005
792,0.170217
783,0.171972
774,0.175051
765,0.178393
756,0.183209
747,0.187463
738,0.189526
729,0.190253
720,0.19112
711,0.192988
702,0.193746
693,0.193242
684,0.191717
675,0.190174
666,0.188463
657,0.187313
648,0.186129
639,0.18506
630,0.183882
621,0.183277
612,0.183079
603,0.184379
594,0.186723
585,0.188282
576,0.189011
567,0.192219
558,0.196667
549,0.197104
540,0.195946
531,0.199138
522,0.202107
513,0.202472
504,0.204781
495,0.209812
486,0.209141
477,0.208411
468,0.213068
459,0.211885
450,0.212083
441,0.215657
432,0.217889
423,0.222085
414,0.22379
405,0.22795
396,0.232678
387,0.236444
378,0.242393
369,0.249704
360,0.254906
351,0.264652
342,0.27014
333,0.280858
324,0.290886
315,0.306749
306,0.325606
297,0.34767
288,0.371688
279,0.39154
270,0.400513
261,0.394385
252,0.378661
243,0.34797
234,0.318514
225,0.308916
216,0.405828
207,0.574583
200,0.554774