File: AbsorptionAnalysis/Absorption - Correction Files/Absorption BG Susbtraction/DodecaneCryostatFilm/Dodecane_KIT_Vac_350.txt
Dodecane_KIT_Vac_350
Wavelength (nm),Abs
2655,0.075601
2646,0.0793386
2637,0.0781374
2628,0.0765082
2619,0.0786101
2610,0.0760556
2601,0.0781064
2592,0.0798792
2583,0.0797381
2574,0.0788821
2565,0.0791217
2556,0.0800369
2547,0.0801608
2538,0.0800236
2529,0.0807427
2520,0.081093
2511,0.0811286
2502,0.081856
2493,0.082051
2484,0.0824445
2475,0.0824154
2466,0.0827296
2457,0.0830285
2448,0.0836434
2439,0.0839707
2430,0.0842317
2421,0.0844976
2412,0.0849471
2403,0.0854706
2394,0.0863769
2385,0.0867166
2376,0.0874989
2367,0.0879588
2358,0.0889869
2349,0.0896267
2340,0.0903288
2331,0.0911553
2322,0.0920613
2313,0.0929847
2304,0.0944586
2295,0.0951653
2286,0.0962037
2277,0.0973858
2268,0.0988024
2259,0.10061
2250,0.101594
2241,0.103006
2232,0.104605
2223,0.10625
2214,0.107948
2205,0.110124
2196,0.111656
2187,0.11347
2178,0.115361
2169,0.1173
2160,0.119569
2151,0.121531
2142,0.124103
2133,0.126369
2124,0.128936
2115,0.131436
2106,0.134204
2097,0.137277
2088,0.140228
2079,0.143455
2070,0.146516
2061,0.150076
2052,0.153606
2043,0.157109
2034,0.160783
2025,0.164356
2016,0.167978
2007,0.171624
1998,0.175234
1989,0.178647
1980,0.181952
1971,0.185238
1962,0.188359
1953,0.191514
1944,0.194774
1935,0.197853
1926,0.201068
1917,0.204298
1908,0.207418
1899,0.211114
1890,0.214212
1881,0.216921
1872,0.21944
1863,0.221696
1854,0.22346
1845,0.224377
1836,0.225103
1827,0.224859
1818,0.224058
1809,0.222893
1800,0.220928
1791,0.218806
1782,0.216356
1773,0.21354
1764,0.2107
1755,0.207822
1746,0.204794
1737,0.201801
1728,0.19866
1719,0.19536
1710,0.191971
1701,0.188389
1692,0.184648
1683,0.180872
1674,0.177223
1665,0.173639
1656,0.169905
1647,0.166404
1638,0.162922
1629,0.159385
1620,0.156217
1611,0.153051
1602,0.150229
1593,0.147766
1584,0.14554
1575,0.143649
1566,0.142002
1557,0.140485
1548,0.139222
1539,0.138109
1530,0.137105
1521,0.136351
1512,0.135597
1503,0.135017
1494,0.134458
1485,0.133969
1476,0.133639
1467,0.133352
1458,0.132998
1449,0.132741
1440,0.132537
1431,0.132343
1422,0.132066
1413,0.131852
1404,0.131686
1395,0.131573
1386,0.13126
1377,0.131207
1368,0.130855
1359,0.130648
1350,0.130591
1341,0.130498
1332,0.130535
1323,0.130568
1314,0.130769
1305,0.131106
1296,0.13142
1287,0.131919
1278,0.132546
1269,0.13338
1260,0.134356
1251,0.135499
1242,0.13686
1233,0.138341
1224,0.14003
1215,0.141939
1206,0.144207
1197,0.14646
1188,0.149206
1179,0.152033
1170,0.154922
1161,0.157825
1152,0.160945
1143,0.164444
1134,0.168594
1125,0.173352
1116,0.178466
1107,0.183377
1098,0.187483
1089,0.19032
1080,0.192088
1071,0.193769
1062,0.195913
1053,0.198911
1044,0.202351
1035,0.205111
1026,0.20642
1017,0.206099
1008,0.204508
999,0.202368
990,0.199425
981,0.196164
972,0.193038
963,0.190374
954,0.18776
945,0.184816
936,0.181357
927,0.177961
918,0.17442
909,0.170658
900,0.167399
891,0.164687
882,0.168649
873,0.162551
864,0.161546
855,0.158315
846,0.157754
837,0.158189
828,0.158902
819,0.160014
810,0.161687
801,0.163481
792,0.166029
783,0.167948
774,0.170488
765,0.174318
756,0.179212
747,0.183327
738,0.185188
729,0.18602
720,0.186822
711,0.18863
702,0.189683
693,0.189048
684,0.187519
675,0.186132
666,0.184289
657,0.18292
648,0.181853
639,0.180672
630,0.179513
621,0.178631
612,0.178676
603,0.179852
594,0.182246
585,0.183725
576,0.184484
567,0.187812
558,0.192002
549,0.192665
540,0.191662
531,0.194496
522,0.197456
513,0.198129
504,0.200364
495,0.205405
486,0.205109
477,0.204162
468,0.208857
459,0.207632
450,0.207673
441,0.211518
432,0.213796
423,0.217855
414,0.219362
405,0.223391
396,0.228266
387,0.231726
378,0.238178
369,0.24533
360,0.250473
351,0.260144
342,0.265157
333,0.275923
324,0.286156
315,0.301945
306,0.320821
297,0.34234
288,0.366402
279,0.386576
270,0.395141
261,0.389359
252,0.372951
243,0.342357
234,0.31186
225,0.300391
216,0.396097
207,0.569351
200,0.547544