File: AbsorptionAnalysis/Absorption - Correction Files/Absorption BG Susbtraction/DodecaneCryostatFilm/Dodecane_KIT_Vac_1420.txt
Dodecane_KIT_Vac_1420
Wavelength (nm),Abs
2655,0.0776337
2646,0.0805144
2637,0.0796768
2628,0.0789516
2619,0.0799204
2610,0.0798016
2601,0.0791936
2592,0.0814282
2583,0.0795233
2574,0.0807632
2565,0.0795411
2556,0.0808214
2547,0.081127
2538,0.0813409
2529,0.0814281
2520,0.0818653
2511,0.0820195
2502,0.0823323
2493,0.0824876
2484,0.0828424
2475,0.0830711
2466,0.0833113
2457,0.0837184
2448,0.0841727
2439,0.0846011
2430,0.0851112
2421,0.0853379
2412,0.0856428
2403,0.0863306
2394,0.087102
2385,0.0876248
2376,0.0881114
2367,0.0887538
2358,0.0898088
2349,0.0903914
2340,0.0912766
2331,0.0918536
2322,0.0930222
2313,0.093775
2304,0.0950315
2295,0.0962617
2286,0.0968366
2277,0.0978668
2268,0.099708
2259,0.101278
2250,0.102329
2241,0.103887
2232,0.105435
2223,0.106997
2214,0.108948
2205,0.11087
2196,0.112682
2187,0.114242
2178,0.116394
2169,0.118383
2160,0.120515
2151,0.122829
2142,0.125082
2133,0.127511
2124,0.130106
2115,0.13259
2106,0.135428
2097,0.138389
2088,0.141372
2079,0.144691
2070,0.147895
2061,0.151266
2052,0.154816
2043,0.158328
2034,0.16198
2025,0.165496
2016,0.169417
2007,0.172917
1998,0.176513
1989,0.180139
1980,0.183405
1971,0.186657
1962,0.189837
1953,0.192907
1944,0.196039
1935,0.19917
1926,0.202422
1917,0.205708
1908,0.208762
1899,0.212528
1890,0.215654
1881,0.218403
1872,0.220894
1863,0.223157
1854,0.224961
1845,0.225897
1836,0.22661
1827,0.22622
1818,0.225465
1809,0.224125
1800,0.222288
1791,0.220029
1782,0.2175
1773,0.214653
1764,0.211776
1755,0.208835
1746,0.205815
1737,0.202874
1728,0.199621
1719,0.196258
1710,0.19278
1701,0.189211
1692,0.185445
1683,0.181676
1674,0.177989
1665,0.174357
1656,0.170699
1647,0.167123
1638,0.163635
1629,0.160094
1620,0.156883
1611,0.15375
1602,0.150888
1593,0.148441
1584,0.146284
1575,0.144362
1566,0.142736
1557,0.141229
1548,0.139982
1539,0.138849
1530,0.137895
1521,0.137125
1512,0.136407
1503,0.135834
1494,0.135318
1485,0.134799
1476,0.134521
1467,0.134245
1458,0.133878
1449,0.133645
1440,0.133377
1431,0.13318
1422,0.132951
1413,0.132729
1404,0.132618
1395,0.132449
1386,0.132231
1377,0.132074
1368,0.131798
1359,0.131621
1350,0.131528
1341,0.131425
1332,0.13149
1323,0.13153
1314,0.131764
1305,0.132085
1296,0.132415
1287,0.132947
1278,0.133631
1269,0.134425
1260,0.135385
1251,0.136581
1242,0.137947
1233,0.139413
1224,0.141124
1215,0.143078
1206,0.145364
1197,0.147633
1188,0.150403
1179,0.153245
1170,0.156164
1161,0.159082
1152,0.162143
1143,0.165666
1134,0.169816
1125,0.174607
1116,0.179765
1107,0.184709
1098,0.188822
1089,0.191598
1080,0.193399
1071,0.195023
1062,0.197156
1053,0.200169
1044,0.20359
1035,0.206411
1026,0.207679
1017,0.207269
1008,0.205726
999,0.203532
990,0.200592
981,0.19721
972,0.194197
963,0.191537
954,0.188836
945,0.185873
936,0.182413
927,0.179006
918,0.175373
909,0.17165
900,0.168432
891,0.163527
882,0.169856
873,0.16588
864,0.163311
855,0.16121
846,0.160797
837,0.160794
828,0.161137
819,0.162138
810,0.163699
801,0.165891
792,0.168112
783,0.170276
774,0.173071
765,0.176583
756,0.181541
747,0.185269
738,0.187446
729,0.187966
720,0.189243
711,0.190784
702,0.191922
693,0.191431
684,0.189951
675,0.188431
666,0.186683
657,0.185409
648,0.184309
639,0.183241
630,0.18209
621,0.181244
612,0.181139
603,0.182593
594,0.184852
585,0.186294
576,0.187062
567,0.190223
558,0.194503
549,0.194964
540,0.194022
531,0.19691
522,0.199956
513,0.200451
504,0.202478
495,0.207639
486,0.207205
477,0.206437
468,0.210975
459,0.20978
450,0.210084
441,0.21377
432,0.216026
423,0.220149
414,0.221881
405,0.225737
396,0.230561
387,0.234081
378,0.240314
369,0.247513
360,0.252666
351,0.262485
342,0.267963
333,0.277744
324,0.288791
315,0.304692
306,0.323438
297,0.34447
288,0.368976
279,0.388905
270,0.397981
261,0.391777
252,0.376045
243,0.345477
234,0.31611
225,0.304922
216,0.401894
207,0.572542
200,0.553455