File: AbsorptionAnalysis/Absorption - Correction Files/Absorption BG Susbtraction/DodecaneCryostatFilm/Dodecane_KIT_Air_A.txt
Dodecane_KIT_Air_A
Wavelength (nm),Abs
2655,0.0722297
2646,0.0753562
2637,0.073726
2628,0.0721597
2619,0.0755136
2610,0.0733171
2601,0.0736069
2592,0.0754627
2583,0.0756428
2574,0.0760036
2565,0.074981
2556,0.0747074
2547,0.0749784
2538,0.0750049
2529,0.0753443
2520,0.0754372
2511,0.0758685
2502,0.0759366
2493,0.0762396
2484,0.0765706
2475,0.0768078
2466,0.0768691
2457,0.077285
2448,0.0775522
2439,0.0780286
2430,0.0783038
2421,0.0785616
2412,0.0789328
2403,0.0795218
2394,0.080187
2385,0.0807148
2376,0.0813353
2367,0.0817431
2358,0.0828841
2349,0.0834034
2340,0.0839993
2331,0.0847292
2322,0.0855791
2313,0.0865728
2304,0.0877295
2295,0.0886599
2286,0.0892769
2277,0.09037
2268,0.0921016
2259,0.0933105
2250,0.0946111
2241,0.0960424
2232,0.09742
2223,0.0990609
2214,0.100734
2205,0.102928
2196,0.104378
2187,0.105977
2178,0.107872
2169,0.109732
2160,0.111918
2151,0.113926
2142,0.116116
2133,0.118423
2124,0.12095
2115,0.123271
2106,0.125853
2097,0.128726
2088,0.131554
2079,0.134665
2070,0.137565
2061,0.140883
2052,0.144343
2043,0.147602
2034,0.150998
2025,0.154432
2016,0.157878
2007,0.161323
1998,0.164627
1989,0.167939
1980,0.171022
1971,0.17417
1962,0.177063
1953,0.180109
1944,0.183135
1935,0.186107
1926,0.189451
1917,0.192522
1908,0.195578
1899,0.199206
1890,0.202005
1881,0.204547
1872,0.207552
1863,0.209187
1854,0.211151
1845,0.211882
1836,0.212917
1827,0.212602
1818,0.211903
1809,0.210832
1800,0.209277
1791,0.207307
1782,0.20505
1773,0.202604
1764,0.200071
1755,0.197495
1746,0.194808
1737,0.192128
1728,0.189153
1719,0.186084
1710,0.182912
1701,0.179607
1692,0.176128
1683,0.172602
1674,0.169023
1665,0.165706
1656,0.16217
1647,0.158748
1638,0.155403
1629,0.152083
1620,0.149008
1611,0.145966
1602,0.143182
1593,0.140767
1584,0.138572
1575,0.136706
1566,0.135026
1557,0.133536
1548,0.132298
1539,0.131147
1530,0.130179
1521,0.12936
1512,0.128642
1503,0.127989
1494,0.127455
1485,0.1269
1476,0.126544
1467,0.126291
1458,0.125869
1449,0.125631
1440,0.125347
1431,0.125232
1422,0.124909
1413,0.124684
1404,0.124517
1395,0.124566
1386,0.124256
1377,0.124044
1368,0.123873
1359,0.123656
1350,0.123383
1341,0.123241
1332,0.123251
1323,0.123264
1314,0.123472
1305,0.123691
1296,0.124019
1287,0.124463
1278,0.125076
1269,0.12583
1260,0.126732
1251,0.127805
1242,0.129123
1233,0.130576
1224,0.132136
1215,0.134019
1206,0.13619
1197,0.138423
1188,0.141029
1179,0.143814
1170,0.14665
1161,0.149536
1152,0.152547
1143,0.15606
1134,0.160187
1125,0.164855
1116,0.169859
1107,0.174589
1098,0.178515
1089,0.181316
1080,0.183179
1071,0.184901
1062,0.187231
1053,0.190143
1044,0.193516
1035,0.19613
1026,0.197368
1017,0.197106
1008,0.195588
999,0.193503
990,0.190732
981,0.187543
972,0.184555
963,0.181902
954,0.179241
945,0.176181
936,0.172821
927,0.169367
918,0.165826
909,0.162241
900,0.158977
891,0.15721
882,0.159604
873,0.152705
864,0.152772
855,0.151049
846,0.150682
837,0.150097
828,0.150245
819,0.150948
810,0.152903
801,0.154307
792,0.156519
783,0.158562
774,0.161432
765,0.165023
756,0.1699
747,0.17405
738,0.175521
729,0.176524
720,0.177213
711,0.178935
702,0.179853
693,0.179375
684,0.177773
675,0.176356
666,0.174578
657,0.173193
648,0.17209
639,0.170849
630,0.169687
621,0.169085
612,0.168794
603,0.170125
594,0.172189
585,0.17366
576,0.174449
567,0.177584
558,0.181578
549,0.182067
540,0.181127
531,0.183901
522,0.18684
513,0.187241
504,0.189627
495,0.194623
486,0.194247
477,0.193483
468,0.197832
459,0.196783
450,0.196732
441,0.200561
432,0.202692
423,0.206431
414,0.207979
405,0.211864
396,0.216529
387,0.219595
378,0.225562
369,0.232712
360,0.238071
351,0.247714
342,0.253669
333,0.263635
324,0.274313
315,0.290738
306,0.308941
297,0.330692
288,0.354515
279,0.374506
270,0.382032
261,0.376111
252,0.359888
243,0.328866
234,0.298568
225,0.287553
216,0.383535
207,0.55705
200,0.537362
 New:Choice 1,
 New:Choice 0,
 New:Choice 1,
 New:Choice 0,
 New:2500.000,
 New:175.000,
 New:  600.000,
 New:  600.000,
 New:Reduced,
 New:   900.00,
 New:   900.00,
 New:1,
 New:1,
 New:1.000,
 New:1,
 New:External sipper,
 New:Reduced,
 New:Double fixed slit,
 New:2655.000,
 New:200.000,
 New:Choice 1,
 New:Choice 0,
 New:Choice 1,
 New:Choice 0,
 New:2500.000,
 New:175.000,
 New:  600.000,
 New:  600.000,
 New:Reduced,
 New:   900.00,
 New:   900.00,
 New:1,
 New:1,
 New:1.000,
 New:1,
 New:External sipper,
 New:Reduced,
 New:Double fixed slit,
 New:2655.000,
 New:200.000,
 New:Choice 1,
 New:Choice 0,
 New:Choice 1,
 New:Choice 0,
 New:2500.000,
 New:175.000,
 New:  600.000,
 New:  600.000,
 New:Reduced,
 New:   900.00,
 New:   900.00,
 New:1,
 New:1,
 New:1.000,
 New:1,
 New:External sipper,
 New:Reduced,
 New:Double fixed slit,
 New:2655.000,
 New:200.000,
 New:Choice 1,
 New:Choice 0,
 New:Choice 1,
 New:Choice 0,
 New:2500.000,
 New:175.000,
 New:  600.000,
 New:  600.000,
 New:Reduced,
 New:   900.00,
 New:   900.00,
 New:1,
 New:1,
 New:1.000,
 New:1,
 New:External sipper,
 New:Reduced,
 New:Double fixed slit,
 New:2655.000,
 New:200.000,
 New:Choice 1,
 New:Choice 0,
 New:Choice 1,
 New:Choice 0,
 New:2500.000,
 New:175.000,
 New:  600.000,
 New:  600.000,
 New:Reduced,
 New:   900.00,
 New:   900.00,
 New:1,
 New:1,
 New:1.000,
 New:1,
 New:External sipper,
 New:Reduced,
 New:Double fixed slit,
 New:2655.000,
 New:200.000,
 New:Choice 1,
 New:Choice 0,
 New:Choice 1,
 New:Choice 0,
 New:2500.000,
 New:175.000,
 New:  600.000,
 New:  600.000,
 New:Reduced,
 New:   900.00,
 New:   900.00,
 New:1,
 New:1,
 New:1.000,
 New:1,
 New:External sipper,
 New:Reduced,
 New:Double fixed slit,
 New:2655.000,
 New:200.000,
 New:Choice 1,
 New:Choice 0,
 New:Choice 1,
 New:Choice 0,
 New:2500.000,
 New:175.000,
 New:  600.000,
 New:  600.000,
 New:Reduced,
 New:   900.00,
 New:   900.00,
 New:1,
 New:1,
 New:1.000,
 New:1,
 New:External sipper,
 New:Reduced,
 New:Double fixed slit,
 New:2655.000,
 New:200.000,
 New:Choice 1,
 New:Choice 0,
 New:Choice 1,
 New:Choice 0,
 New:2500.000,
 New:175.000,
 New:  600.000,
 New:  600.000,
 New:Reduced,
 New:   900.00,
 New:   900.00,
 New:1,
 New:1,
 New:1.000,
 New:1,
 New:External sipper,
 New:Reduced,
 New:Double fixed slit,
 New:2655.000,
 New:200.000,
 New:Choice 1,
 New:Choice 0,
 New:Choice 1,
 New:Choice 0,
 New:2500.000,
 New:175.000,
 New:  600.000,
 New:  600.000,
 New:Reduced,
 New:   900.00,
 New:   900.00,
 New:1,
 New:1,
 New:1.000,
 New:1,
 New:External sipper,
 New:Reduced,
 New:Double fixed slit,
 New:2655.000,
 New:200.000,
 New:Choice 1,
 New:Choice 0,
 New:Choice 1,
 New:Choice 0,
 New:2500.000,
 New:175.000,
 New:  600.000,
 New:  600.000,
 New:Reduced,
 New:   900.00,
 New:   900.00,
 New:1,
 New:1,
 New:1.000,
 New:1,
 New:External sipper,
 New:Reduced,
 New:Double fixed slit,
 New:2655.000,
 New:200.000,
 New:Choice 1,
 New:Choice 0,
 New:Choice 1,
 New:Choice 0,
 New:2500.000,
 New:175.000,
 New:  600.000,
 New:  600.000,
 New:Reduced,
 New:   900.00,
 New:   900.00,
 New:1,
 New:1,
 New:1.000,
 New:1,
 New:External sipper,
 New:Reduced,
 New:Double fixed slit,
 New:2655.000,
 New:200.000,
 New:Choice 1,
 New:Choice 0,
 New:Choice 1,
 New:Choice 0,
 New:2500.000,
 New:175.000,
 New:  600.000,
 New:  600.000,
 New:Reduced,
 New:   900.00,
 New:   900.00,
 New:1,
 New:1,
 New:1.000,
 New:1,
 New:External sipper,
 New:Reduced,
 New:Double fixed slit,
 New:2655.000,
 New:200.000,
 New:Choice 1,
 New:Choice 0,
 New:Choice 1,
 New:Choice 0,
 New:2500.000,
 New:175.000,
 New:  600.000,
 New:  600.000,
 New:Reduced,
 New:   900.00,
 New:   900.00,
 New:1,
 New:1,
 New:1.000,
 New:1,
 New:External sipper,
 New:Reduced,
 New:Double fixed slit,
 New:2655.000,
 New:200.000,
 New:Choice 1,
 New:Choice 0,
 New:Choice 1,
 New:Choice 0,
 New:2500.000,
 New:175.000,
 New:  600.000,
 New:  600.000,
 New:Reduced,
 New:   900.00,
 New:   900.00,
 New:1,
 New:1,
 New:1.000,
 New:1,
 New:External sipper,
 New:Reduced,
 New:Double fixed slit,
 New:2655.000,
 New:200.000,
 New:Choice 1,
 New:Choice 0,
 New:Choice 1,
 New:Choice 0,
 New:2500.000,
 New:175.000,
 New:  600.000,
 New:  600.000,
 New:Reduced,
 New:   900.00,
 New:   900.00,
 New:1,
 New:1,
 New:1.000,
 New:1,
 New:External sipper,
 New:Reduced,
 New:Double fixed slit,
 New:2655.000,
 New:200.000,
 New:Choice 1,
 New:Choice 0,
 New:Choice 1,
 New:Choice 0,
 New:2500.000,
 New:175.000,
 New:  600.000,
 New:  600.000,
 New:Reduced,
 New:   900.00,
 New:   900.00,
 New:1,
 New:1,
 New:1.000,
 New:1,
 New:External sipper,
 New:Reduced,
 New:Double fixed slit,
 New:2655.000,
 New:200.000,
 New:Choice 1,
 New:Choice 0,
 New:Choice 1,
 New:Choice 0,
 New:2500.000,
 New:175.000,
 New:  600.000,
 New:  600.000,
 New:Reduced,
 New:   900.00,
 New:   900.00,
 New:1,
 New:1,
 New:1.000,
 New:1,
 New:External sipper,
 New:Reduced,
 New:Double fixed slit,
 New:2655.000,
 New:200.000,
 New:Choice 1,
 New:Choice 0,
 New:Choice 1,
 New:Choice 0,
 New:2500.000,
 New:175.000,
 New:  600.000,
 New:  600.000,
 New:Reduced,
 New:   900.00,
 New:   900.00,
 New:1,
 New:1,
 New:1.000,
 New:1,
 New:External sipper,
 New:Reduced,
 New:Double fixed slit,
 New:2655.000,
 New:200.000,
 New:Choice 1,
 New:Choice 0,
 New:Choice 1,
 New:Choice 0,
 New:2500.000,
 New:175.000,
 New:  600.000,
 New:  600.000,
 New:Reduced,
 New:   900.00,
 New:   900.00,
 New:1,
 New:1,
 New:1.000,
 New:1,
 New:External sipper,
 New:Reduced,
 New:Double fixed slit,
 New:2655.000,
 New:200.000,
 New:Choice 1,
 New:Choice 0,
 New:Choice 1,
 New:Choice 0,
 New:2500.000,
 New:175.000,
 New:  600.000,
 New:  600.000,
 New:Reduced,
 New:   900.00,
 New:   900.00,
 New:1,
 New:1,
 New:1.000,
 New:1,
 New:External sipper,
 New:Reduced,
 New:Double fixed slit,
 New:2655.000,
 New:200.000,
 New:Choice 1,
 New:Choice 0,
 New:Choice 1,
 New:Choice 0,
 New:2500.000,
 New:175.000,
 New:  600.000,
 New:  600.000,
 New:Reduced,
 New:   900.00,
 New:   900.00,
 New:1,
 New:1,
 New:1.000,
 New:1,
 New:External sipper,
 New:Reduced,
 New:Double fixed slit,
 New:2655.000,
 New:200.000,