File: Absorption_Analysis/Absorption - Correction Files/Absorption BG Susbtraction/Polymer_Solution.txt
AGSD05cBPY3,,
Wavelength (nm),Abs,
1600,0.000911832,
1595,0.00091868,
1590,0.000973263,
1585,0.00100061,
1580,0.00106159,
1575,0.00109125,
1570,0.00109709,
1565,0.00113062,
1560,0.00114627,
1555,0.00112545,
1550,0.00117383,
1545,0.00126593,
1540,0.00127876,
1535,0.00126388,
1530,0.00123052,
1525,0.00118966,
1520,0.00120516,
1515,0.0011717,
1510,0.00111024,
1505,0.0011145,
1500,0.00116563,
1495,0.00120238,
1490,0.00121227,
1485,0.00123276,
1480,0.00133801,
1475,0.00131451,
1470,0.00126687,
1465,0.0012143,
1460,0.0012759,
1455,0.00117736,
1450,0.00122406,
1445,0.00133484,
1440,0.00136252,
1435,0.0014169,
1430,0.00148064,
1425,0.00164345,
1420,0.00202348,
1415,0.00260374,
1410,0.00320621,
1405,0.00365156,
1400,0.00370672,
1395,0.00337792,
1390,0.00295039,
1385,0.00232401,
1380,0.00233583,
1375,0.00221631,
1370,0.00179956,
1365,0.00147941,
1360,0.00189364,
1355,0.00177245,
1350,0.0017888,
1345,0.00196268,
1340,0.00207932,
1335,0.00204836,
1330,0.00195995,
1325,0.0019082,
1320,0.00173479,
1315,0.00169482,
1310,0.00168575,
1305,0.00169789,
1300,0.00179582,
1295,0.00192242,
1290,0.00203877,
1285,0.00215124,
1280,0.00230413,
1275,0.00240035,
1270,0.00262775,
1265,0.00320736,
1260,0.00380689,
1255,0.00400558,
1250,0.00367712,
1245,0.00315257,
1240,0.00276747,
1235,0.0025421,
1230,0.00242357,
1225,0.00245673,
1220,0.00243158,
1215,0.00242778,
1210,0.00248222,
1205,0.00258559,
1200,0.00276181,
1195,0.00358156,
1190,0.0050278,
1185,0.00635967,
1180,0.00687674,
1175,0.00660755,
1170,0.00588852,
1165,0.00598882,
1160,0.00554036,
1155,0.00588773,
1150,0.00642663,
1145,0.00632158,
1140,0.0047904,
1135,0.00418771,
1130,0.00464022,
1125,0.00462282,
1120,0.0044716,
1115,0.00412515,
1110,0.0039538,
1105,0.0039287,
1100,0.00395566,
1095,0.00412421,
1090,0.00452122,
1085,0.00470407,
1080,0.00559712,
1075,0.00605016,
1070,0.00719458,
1065,0.00854636,
1060,0.0100371,
1055,0.011904,
1050,0.0141461,
1045,0.0176551,
1040,0.0230885,
1035,0.0295717,
1030,0.0360457,
1025,0.0439072,
1020,0.0597311,
1015,0.0986591,
1010,0.191028,
1005,0.364639,
1000,0.558116,
995,0.619642,
990,0.488176,
985,0.309516,
980,0.188062,
975,0.119203,
970,0.0806136,
965,0.0581504,
960,0.0444088,
955,0.0360443,
950,0.0314205,
945,0.0296019,
940,0.0299136,
935,0.0315486,
930,0.0321823,
925,0.0301771,
920,0.0269388,
915,0.0237859,
910,0.0214192,
905,0.0200527,
900,0.0194266,
895,0.0192496,
890,0.0195591,
885,0.0206786,
880,0.0229509,
875,0.0277102,
870,0.0352146,
865,0.0431433,
860,0.0481214,
855,0.0481263,
850,0.0449369,
845,0.0413562,
840,0.0383034,
835,0.0354281,
830,0.0323425,
825,0.0290237,
820,0.0258577,
815,0.023089,
810,0.0206917,
805,0.0187421,
800,0.0171674,
795,0.0161035,
790,0.0161126,
785,0.0161046,
780,0.016073,
775,0.0164932,
770,0.0171785,
765,0.0183301,
760,0.0194081,
755,0.0198977,
750,0.0197907,
745,0.0193886,
740,0.0190725,
735,0.0188943,
730,0.0186794,
725,0.0180628,
720,0.0174344,
715,0.0169039,
710,0.0166841,
705,0.0166516,
700,0.0165157,
695,0.0163372,
690,0.0165021,
685,0.016983,
680,0.0176942,
675,0.0187338,
670,0.0200891,
665,0.0217196,
660,0.0239187,
655,0.0268963,
650,0.0301795,
645,0.0305402,
640,0.0272521,
635,0.0257889,
630,0.0265791,
625,0.0279224,
620,0.0296517,
615,0.0316107,
610,0.0334149,
605,0.0363383,
600,0.0417663,
595,0.0514725,
590,0.0650069,
585,0.0824353,
580,0.114417,
575,0.150784,
570,0.144384,
565,0.102296,
560,0.0695539,
555,0.0518558,
550,0.0427141,
545,0.0376175,
540,0.0353033,
535,0.0359259,
530,0.039603,
525,0.0433226,
520,0.0431321,
515,0.0399971,
510,0.0363071,
505,0.0332361,
500,0.0315447,
495,0.0311283,
490,0.0317724,
485,0.033066,
480,0.0344289,
475,0.0347103,
470,0.0344887,
465,0.034267,
460,0.0347086,
455,0.0356195,
450,0.0370322,
445,0.0383665,
440,0.0395551,
435,0.0408538,
430,0.0423528,
425,0.0441268,
420,0.046325,
415,0.0492076,
410,0.0525924,
405,0.0571001,
400,0.0640341,
395,0.0759887,
390,0.0976686,
385,0.138279,
380,0.226057,
375,0.627349,
370,2.31656,
365,3.13762,
360,3.14325,
355,3.14196,
350,3.13825,
345,3.13074,
340,3.11393,
335,3.04729,
330,2.93924,
325,2.80658,
320,2.62356,
315,2.42045,
310,2.23706,
305,2.03465,
300,1.82699,