File: AbsorptionAnalysis/AbsorptionBGSubstraction_Pfolh2017/DodecaneCryostatFilm/Dodecane_KIT_Temp_50_B.txt
Dodecane_KIT_Temp_50_B
Wavelength (nm),Abs
2655,0.0805255
2646,0.0789577
2637,0.0806357
2628,0.0792296
2619,0.081625
2610,0.080905
2601,0.0808611
2592,0.0816906
2583,0.0806471
2574,0.0795854
2565,0.0794044
2556,0.0815494
2547,0.0822808
2538,0.0818773
2529,0.082231
2520,0.0822014
2511,0.0821798
2502,0.0829616
2493,0.0828925
2484,0.0832017
2475,0.0835446
2466,0.0840549
2457,0.0842844
2448,0.0845847
2439,0.0851225
2430,0.0855365
2421,0.0858019
2412,0.0863666
2403,0.0869413
2394,0.0876098
2385,0.0881688
2376,0.0886611
2367,0.0894702
2358,0.0904576
2349,0.0909718
2340,0.0918578
2331,0.0923577
2322,0.0936271
2313,0.0945035
2304,0.0956082
2295,0.0967836
2286,0.0976203
2277,0.0983085
2268,0.1003
2259,0.101544
2250,0.102838
2241,0.104263
2232,0.106022
2223,0.107702
2214,0.109634
2205,0.111708
2196,0.113076
2187,0.11522
2178,0.116936
2169,0.119197
2160,0.121183
2151,0.123536
2142,0.125831
2133,0.12811
2124,0.13078
2115,0.133339
2106,0.136103
2097,0.139064
2088,0.142017
2079,0.145234
2070,0.148353
2061,0.15191
2052,0.15537
2043,0.158964
2034,0.162469
2025,0.166218
2016,0.169863
2007,0.173369
1998,0.177115
1989,0.180524
1980,0.18378
1971,0.18717
1962,0.190079
1953,0.193253
1944,0.19644
1935,0.199601
1926,0.202733
1917,0.206092
1908,0.209162
1899,0.212737
1890,0.216006
1881,0.218487
1872,0.221053
1863,0.223264
1854,0.225001
1845,0.225972
1836,0.22662
1827,0.226193
1818,0.225608
1809,0.224301
1800,0.222376
1791,0.22007
1782,0.217648
1773,0.214733
1764,0.211928
1755,0.208866
1746,0.205957
1737,0.202935
1728,0.199722
1719,0.196444
1710,0.193011
1701,0.189399
1692,0.185666
1683,0.181919
1674,0.178161
1665,0.174618
1656,0.170947
1647,0.167323
1638,0.163882
1629,0.160347
1620,0.157192
1611,0.154114
1602,0.151296
1593,0.148863
1584,0.146673
1575,0.144827
1566,0.143184
1557,0.141711
1548,0.140429
1539,0.139361
1530,0.138351
1521,0.137555
1512,0.136851
1503,0.136303
1494,0.135749
1485,0.135244
1476,0.134968
1467,0.134655
1458,0.134308
1449,0.134072
1440,0.133848
1431,0.133688
1422,0.133374
1413,0.133213
1404,0.133098
1395,0.132925
1386,0.13274
1377,0.132501
1368,0.132265
1359,0.132082
1350,0.131975
1341,0.131928
1332,0.131913
1323,0.131986
1314,0.132199
1305,0.132523
1296,0.132868
1287,0.133393
1278,0.134067
1269,0.134898
1260,0.135871
1251,0.137043
1242,0.138416
1233,0.139924
1224,0.141644
1215,0.14358
1206,0.145811
1197,0.148143
1188,0.150905
1179,0.153759
1170,0.156621
1161,0.159574
1152,0.162636
1143,0.166165
1134,0.170373
1125,0.175116
1116,0.180225
1107,0.18515
1098,0.189263
1089,0.192049
1080,0.193884
1071,0.195515
1062,0.197708
1053,0.200725
1044,0.204094
1035,0.206844
1026,0.208097
1017,0.207776
1008,0.206185
999,0.203925
990,0.201006
981,0.197668
972,0.194594
963,0.191968
954,0.189278
945,0.186211
936,0.182842
927,0.179337
918,0.17573
909,0.172049
900,0.168675
891,0.162676
882,0.164192
873,0.164696
864,0.162385
855,0.160933
846,0.160399
837,0.160927
828,0.161105
819,0.162033
810,0.164091
801,0.166178
792,0.168476
783,0.170342
774,0.173211
765,0.176969
756,0.181708
747,0.185673
738,0.187874
729,0.188423
720,0.189395
711,0.191363
702,0.192308
693,0.191623
684,0.190128
675,0.18858
666,0.186873
657,0.185594
648,0.184596
639,0.183409
630,0.18218
621,0.181533
612,0.181441
603,0.182715
594,0.185047
585,0.186492
576,0.187347
567,0.190575
558,0.194613
549,0.195306
540,0.194355
531,0.197292
522,0.200281
513,0.200717
504,0.20298
495,0.207943
486,0.20752
477,0.206859
468,0.211453
459,0.210246
450,0.210401
441,0.214024
432,0.216333
423,0.220284
414,0.222254
405,0.226247
396,0.231093
387,0.23426
378,0.240484
369,0.247697
360,0.253244
351,0.263077
342,0.267514
333,0.278578
324,0.289285
315,0.304535
306,0.324054
297,0.345446
288,0.369419
279,0.390115
270,0.398085
261,0.391917
252,0.376529
243,0.346204
234,0.316396
225,0.306389
216,0.404138
207,0.570542
200,0.552395