File: AbsorptionAnalysis/AbsorptionBGSubstraction_Pfolh2017/DodecaneCryostatFilm/Dodecane_KIT_Vac_75.txt
Dodecane_KIT_Vac_75
Wavelength (nm),Abs
2655,0.0766625
2646,0.0787987
2637,0.0788275
2628,0.0774823
2619,0.0803562
2610,0.0787701
2601,0.0795576
2592,0.0808912
2583,0.081358
2574,0.0813316
2565,0.0800169
2556,0.0807293
2547,0.0810953
2538,0.0810996
2529,0.0815285
2520,0.0815462
2511,0.0820022
2502,0.0824616
2493,0.0824325
2484,0.0829412
2475,0.0829232
2466,0.0831088
2457,0.0834965
2448,0.0839578
2439,0.084416
2430,0.0846314
2421,0.0849915
2412,0.0853012
2403,0.0858407
2394,0.086587
2385,0.0871173
2376,0.0877071
2367,0.0883076
2358,0.0893824
2349,0.0897781
2340,0.0905638
2331,0.0913495
2322,0.0922809
2313,0.0933101
2304,0.0945791
2295,0.0955082
2286,0.09652
2277,0.0975609
2268,0.0994302
2259,0.100722
2250,0.101886
2241,0.103232
2232,0.104722
2223,0.106373
2214,0.108255
2205,0.110203
2196,0.111758
2187,0.1135
2178,0.115749
2169,0.117552
2160,0.119745
2151,0.121865
2142,0.124182
2133,0.126632
2124,0.129146
2115,0.131591
2106,0.134373
2097,0.137272
2088,0.14019
2079,0.143528
2070,0.146608
2061,0.150019
2052,0.153539
2043,0.156957
2034,0.160669
2025,0.164182
2016,0.167936
2007,0.171423
1998,0.17491
1989,0.178347
1980,0.181709
1971,0.18495
1962,0.188095
1953,0.191175
1944,0.194254
1935,0.197372
1926,0.200649
1917,0.20378
1908,0.206851
1899,0.210608
1890,0.213481
1881,0.216261
1872,0.218819
1863,0.221076
1854,0.222821
1845,0.223709
1836,0.224508
1827,0.224224
1818,0.223515
1809,0.222246
1800,0.220553
1791,0.218362
1782,0.215912
1773,0.213202
1764,0.210477
1755,0.207647
1746,0.204687
1737,0.201781
1728,0.198593
1719,0.195388
1710,0.192037
1701,0.188483
1692,0.184791
1683,0.18106
1674,0.177378
1665,0.17392
1656,0.17023
1647,0.166677
1638,0.163181
1629,0.15983
1620,0.156568
1611,0.153523
1602,0.150611
1593,0.148172
1584,0.146036
1575,0.144105
1566,0.142468
1557,0.140891
1548,0.139672
1539,0.138471
1530,0.137546
1521,0.136754
1512,0.136005
1503,0.135412
1494,0.134879
1485,0.134357
1476,0.134041
1467,0.133727
1458,0.133391
1449,0.133154
1440,0.132891
1431,0.132693
1422,0.132443
1413,0.132242
1404,0.132063
1395,0.131937
1386,0.131664
1377,0.131487
1368,0.131234
1359,0.131024
1350,0.130933
1341,0.130818
1332,0.130894
1323,0.130939
1314,0.131114
1305,0.131415
1296,0.131753
1287,0.132274
1278,0.132879
1269,0.133739
1260,0.134664
1251,0.135797
1242,0.137117
1233,0.13865
1224,0.140277
1215,0.142227
1206,0.144434
1197,0.14668
1188,0.149406
1179,0.152197
1170,0.155117
1161,0.158035
1152,0.161095
1143,0.1646
1134,0.168744
1125,0.173516
1116,0.178571
1107,0.183475
1098,0.187574
1089,0.190364
1080,0.192218
1071,0.193923
1062,0.19614
1053,0.199116
1044,0.202456
1035,0.205266
1026,0.20655
1017,0.206266
1008,0.204732
999,0.202627
990,0.19967
981,0.196399
972,0.193372
963,0.190753
954,0.18813
945,0.18517
936,0.181739
927,0.178283
918,0.174697
909,0.17126
900,0.167935
891,0.167885
882,0.167013
873,0.164088
864,0.160262
855,0.159272
846,0.159686
837,0.159301
828,0.159879
819,0.159983
810,0.162193
801,0.164061
792,0.166196
783,0.168187
774,0.170785
765,0.174695
756,0.179466
747,0.183334
738,0.185065
729,0.186084
720,0.186781
711,0.188787
702,0.189647
693,0.189128
684,0.187609
675,0.18611
666,0.18436
657,0.182992
648,0.181965
639,0.180822
630,0.179607
621,0.178841
612,0.178734
603,0.180063
594,0.182382
585,0.183796
576,0.184606
567,0.18785
558,0.191997
549,0.192786
540,0.191786
531,0.194565
522,0.197594
513,0.198105
504,0.200547
495,0.205346
486,0.205147
477,0.204272
468,0.208919
459,0.207656
450,0.207741
441,0.211708
432,0.213663
423,0.217537
414,0.219645
405,0.223567
396,0.228008
387,0.231554
378,0.237763
369,0.244776
360,0.249874
351,0.259597
342,0.265885
333,0.275773
324,0.285996
315,0.30226
306,0.320756
297,0.34242
288,0.366738
279,0.386602
270,0.394894
261,0.388367
252,0.372243
243,0.341436
234,0.31164
225,0.300242
216,0.396175
207,0.568538
200,0.54819