File: AbsorptionAnalysis/AbsorptionBGSubstraction_Pfolh2017/DodecaneCryostatFilm/Dodecane_KIT_Vac_20.txt
Dodecane_KIT_Vac_20
Wavelength (nm),Abs
2655,0.0762397
2646,0.0797651
2637,0.0786982
2628,0.0781144
2619,0.0786763
2610,0.0774599
2601,0.0784189
2592,0.0797842
2583,0.0808662
2574,0.0807914
2565,0.0802724
2556,0.0799028
2547,0.0803213
2538,0.0804287
2529,0.0806848
2520,0.0807023
2511,0.0810119
2502,0.0817884
2493,0.0816947
2484,0.0822162
2475,0.0821056
2466,0.0825023
2457,0.082861
2448,0.0831718
2439,0.0835818
2430,0.0841332
2421,0.0843813
2412,0.084728
2403,0.0852947
2394,0.0859291
2385,0.0866375
2376,0.0871614
2367,0.0876983
2358,0.0887437
2349,0.0892427
2340,0.090088
2331,0.0907446
2322,0.0917547
2313,0.0926331
2304,0.0939902
2295,0.0946009
2286,0.0954108
2277,0.0965323
2268,0.0981383
2259,0.0997042
2250,0.100873
2241,0.102491
2232,0.104035
2223,0.105551
2214,0.10724
2205,0.109369
2196,0.111012
2187,0.112526
2178,0.114584
2169,0.116577
2160,0.1187
2151,0.120818
2142,0.123059
2133,0.125431
2124,0.127979
2115,0.130334
2106,0.13317
2097,0.135969
2088,0.13894
2079,0.142048
2070,0.145228
2061,0.148574
2052,0.152
2043,0.155428
2034,0.159057
2025,0.162423
2016,0.166125
2007,0.16944
1998,0.173184
1989,0.176537
1980,0.179735
1971,0.182953
1962,0.186074
1953,0.189068
1944,0.192145
1935,0.195222
1926,0.198501
1917,0.201712
1908,0.204556
1899,0.208423
1890,0.211369
1881,0.214063
1872,0.21661
1863,0.218804
1854,0.220581
1845,0.221541
1836,0.222287
1827,0.222137
1818,0.221428
1809,0.220328
1800,0.218578
1791,0.21656
1782,0.214315
1773,0.21164
1764,0.208981
1755,0.20621
1746,0.203363
1737,0.200566
1728,0.197477
1719,0.194428
1710,0.19112
1701,0.187606
1692,0.184022
1683,0.180394
1674,0.176786
1665,0.173368
1656,0.169784
1647,0.166256
1638,0.162787
1629,0.159457
1620,0.15636
1611,0.153214
1602,0.150439
1593,0.14801
1584,0.145824
1575,0.143934
1566,0.142252
1557,0.140732
1548,0.13951
1539,0.138355
1530,0.137397
1521,0.136636
1512,0.135861
1503,0.135304
1494,0.13475
1485,0.134229
1476,0.133913
1467,0.133595
1458,0.133258
1449,0.133
1440,0.132753
1431,0.132573
1422,0.132314
1413,0.132102
1404,0.131966
1395,0.13185
1386,0.131626
1377,0.131437
1368,0.131177
1359,0.130975
1350,0.130888
1341,0.130841
1332,0.13083
1323,0.130921
1314,0.131097
1305,0.131382
1296,0.131663
1287,0.132192
1278,0.132842
1269,0.133591
1260,0.134552
1251,0.135702
1242,0.136991
1233,0.138469
1224,0.140165
1215,0.142046
1206,0.144221
1197,0.146528
1188,0.149228
1179,0.152014
1170,0.154886
1161,0.157793
1152,0.160925
1143,0.164401
1134,0.168564
1125,0.173289
1116,0.178298
1107,0.183189
1098,0.187277
1089,0.190078
1080,0.191957
1071,0.193683
1062,0.19596
1053,0.198957
1044,0.202301
1035,0.205043
1026,0.206307
1017,0.206038
1008,0.204551
999,0.202433
990,0.199587
981,0.196362
972,0.193338
963,0.190692
954,0.188117
945,0.185072
936,0.181588
927,0.178235
918,0.174655
909,0.171076
900,0.167702
891,0.164739
882,0.167928
873,0.161131
864,0.161548
855,0.158285
846,0.15983
837,0.158717
828,0.159576
819,0.160629
810,0.16229
801,0.164059
792,0.16603
783,0.168089
774,0.170674
765,0.174687
756,0.179366
747,0.183502
738,0.185278
729,0.18615
720,0.187055
711,0.188631
702,0.189703
693,0.189219
684,0.187734
675,0.186175
666,0.184442
657,0.18317
648,0.182083
639,0.18091
630,0.179693
621,0.178916
612,0.179003
603,0.180162
594,0.18256
585,0.183841
576,0.184689
567,0.187766
558,0.191852
549,0.192656
540,0.19168
531,0.194616
522,0.197445
513,0.198197
504,0.200331
495,0.205213
486,0.205178
477,0.204342
468,0.208851
459,0.207712
450,0.207663
441,0.211629
432,0.213713
423,0.217651
414,0.219505
405,0.223271
396,0.22789
387,0.230854
378,0.237028
369,0.244256
360,0.249453
351,0.259382
342,0.265065
333,0.275328
324,0.286172
315,0.302063
306,0.321137
297,0.342761
288,0.366236
279,0.385884
270,0.395049
261,0.388391
252,0.372366
243,0.341795
234,0.31126
225,0.299671
216,0.396229
207,0.568956
200,0.546118