File: AbsorptionAnalysis/AbsorptionBGSubstraction_Pfolh2017/DodecaneCryostatFilm/Dodecane_KIT_Temp_98.txt
Dodecane_KIT_Temp_98
Wavelength (nm),Abs
2655,0.0840743
2646,0.0814897
2637,0.0846751
2628,0.0831777
2619,0.0836383
2610,0.0856229
2601,0.0851766
2592,0.0845793
2583,0.0847351
2574,0.0810725
2565,0.0838055
2556,0.0847592
2547,0.0851743
2538,0.0849451
2529,0.0848669
2520,0.0846965
2511,0.0850949
2502,0.0856299
2493,0.0855705
2484,0.0861377
2475,0.0861239
2466,0.0865564
2457,0.0870714
2448,0.0873401
2439,0.0879636
2430,0.0885392
2421,0.0888432
2412,0.089354
2403,0.0899234
2394,0.0904385
2385,0.0909804
2376,0.0917508
2367,0.092488
2358,0.0931619
2349,0.0941904
2340,0.0946874
2331,0.0958241
2322,0.0964074
2313,0.0978116
2304,0.098567
2295,0.099471
2286,0.100578
2277,0.101583
2268,0.103134
2259,0.104477
2250,0.105821
2241,0.107539
2232,0.109232
2223,0.111205
2214,0.11276
2205,0.114464
2196,0.116471
2187,0.118611
2178,0.120356
2169,0.122668
2160,0.124789
2151,0.127022
2142,0.129403
2133,0.131703
2124,0.134205
2115,0.136863
2106,0.139576
2097,0.142467
2088,0.145397
2079,0.148721
2070,0.151839
2061,0.155357
2052,0.158856
2043,0.162386
2034,0.165948
2025,0.16961
2016,0.173295
2007,0.176859
1998,0.180454
1989,0.183823
1980,0.187213
1971,0.190499
1962,0.193612
1953,0.196753
1944,0.199843
1935,0.202866
1926,0.206086
1917,0.209301
1908,0.212396
1899,0.216166
1890,0.219164
1881,0.221763
1872,0.224072
1863,0.226506
1854,0.228271
1845,0.229104
1836,0.22968
1827,0.229374
1818,0.22856
1809,0.227136
1800,0.225349
1791,0.222985
1782,0.220455
1773,0.217531
1764,0.214566
1755,0.211713
1746,0.208708
1737,0.205713
1728,0.202468
1719,0.199129
1710,0.195735
1701,0.192116
1692,0.188407
1683,0.184653
1674,0.180924
1665,0.177363
1656,0.173682
1647,0.170178
1638,0.166592
1629,0.163194
1620,0.160068
1611,0.156966
1602,0.154202
1593,0.151763
1584,0.149706
1575,0.147751
1566,0.146098
1557,0.144655
1548,0.143433
1539,0.142361
1530,0.141401
1521,0.14059
1512,0.139882
1503,0.139336
1494,0.138807
1485,0.138285
1476,0.137992
1467,0.137756
1458,0.137367
1449,0.137129
1440,0.136838
1431,0.136752
1422,0.136413
1413,0.136251
1404,0.136116
1395,0.136072
1386,0.135852
1377,0.1355609
1368,0.135338
1359,0.135179
1350,0.135105
1341,0.135011
1332,0.135055
1323,0.135122
1314,0.135329
1305,0.135659
1296,0.136029
1287,0.136549
1278,0.137269
1269,0.138118
1260,0.139115
1251,0.140342
1242,0.141713
1233,0.143238
1224,0.144962
1215,0.146991
1206,0.14919
1197,0.15156
1188,0.154335
1179,0.157193
1170,0.160078
1161,0.163068
1152,0.166206
1143,0.16976
1134,0.173986
1125,0.178761
1116,0.183863
1107,0.188757
1098,0.192809
1089,0.195603
1080,0.197483
1071,0.199135
1062,0.201442
1053,0.204456
1044,0.207809
1035,0.210439
1026,0.211667
1017,0.211239
1008,0.209614
999,0.207337
990,0.204267
981,0.200871
972,0.197887
963,0.195239
954,0.192509
945,0.189499
936,0.186058
927,0.182509
918,0.178767
909,0.175109
900,0.171874
891,0.165653
882,0.171876
873,0.16777
864,0.167511
855,0.165115
846,0.164388
837,0.164589
828,0.165292
819,0.166096
810,0.167977
801,0.169591
792,0.172048
783,0.173905
774,0.176759
765,0.180465
756,0.185467
747,0.189324
738,0.191099
729,0.191732
720,0.192672
711,0.194347
702,0.195292
693,0.194931
684,0.193379
675,0.191764
666,0.189967
657,0.188685
648,0.187665
639,0.186609
630,0.185506
621,0.184721
612,0.184726
603,0.185994
594,0.188293
585,0.189873
576,0.190758
567,0.194114
558,0.198257
549,0.198979
540,0.198077
531,0.201053
522,0.203974
513,0.204368
504,0.206711
495,0.211815
486,0.211222
477,0.210633
468,0.215166
459,0.213834
450,0.214136
441,0.21769
432,0.22005
423,0.224191
414,0.226012
405,0.230192
396,0.234794
387,0.238394
378,0.2446
369,0.251452
360,0.256961
351,0.267183
342,0.272352
333,0.283157
324,0.294016
315,0.310067
306,0.328793
297,0.350644
288,0.375
279,0.394962
270,0.403736
261,0.397191
252,0.381479
243,0.350863
234,0.322195
225,0.315263
216,0.417021
207,0.579528
200,0.561476