File: AbsorptionAnalysis/AbsorptionBGSubstraction_Pfolh2017/DodecaneCryostatFilm/Dodecane_KIT_Vac_140.txt
Dodecane_KIT_Vac_140
Wavelength (nm),Abs
2655,0.0757061
2646,0.0803043
2637,0.0788972
2628,0.07768
2619,0.0794148
2610,0.0787016
2601,0.0798491
2592,0.0802443
2583,0.0812495
2574,0.0805809
2565,0.0803887
2556,0.0810266
2547,0.081051
2538,0.0809454
2529,0.0814418
2520,0.0817157
2511,0.0818278
2502,0.0822102
2493,0.0823917
2484,0.0830666
2475,0.0829045
2466,0.0832016
2457,0.0836361
2448,0.0839894
2439,0.0842975
2430,0.0846869
2421,0.0848854
2412,0.08533
2403,0.085941
2394,0.086595
2385,0.0871833
2376,0.0877493
2367,0.0883481
2358,0.0894386
2349,0.0898485
2340,0.090654
2331,0.0914767
2322,0.0923489
2313,0.0933438
2304,0.0947611
2295,0.0957804
2286,0.0963701
2277,0.0977336
2268,0.0993718
2259,0.100929
2250,0.10197
2241,0.103447
2232,0.10494
2223,0.106485
2214,0.108331
2205,0.110352
2196,0.112037
2187,0.113626
2178,0.115714
2169,0.117737
2160,0.120002
2151,0.122058
2142,0.124444
2133,0.126863
2124,0.129243
2115,0.131845
2106,0.134628
2097,0.137557
2088,0.140492
2079,0.143758
2070,0.146952
2061,0.150471
2052,0.154053
2043,0.157417
2034,0.161092
2025,0.164642
2016,0.168467
2007,0.171881
1998,0.175475
1989,0.17896
1980,0.182181
1971,0.18555
1962,0.188639
1953,0.191792
1944,0.194874
1935,0.197991
1926,0.201315
1917,0.204437
1908,0.207607
1899,0.211328
1890,0.214403
1881,0.217068
1872,0.219713
1863,0.221722
1854,0.223597
1845,0.224482
1836,0.22517
1827,0.22484
1818,0.22417
1809,0.222957
1800,0.221107
1791,0.218894
1782,0.216504
1773,0.213783
1764,0.210919
1755,0.208037
1746,0.205088
1737,0.202104
1728,0.198878
1719,0.195689
1710,0.192259
1701,0.188691
1692,0.185008
1683,0.181254
1674,0.177483
1665,0.173997
1656,0.170268
1647,0.166723
1638,0.163226
1629,0.159764
1620,0.156532
1611,0.153411
1602,0.1506
1593,0.148112
1584,0.145932
1575,0.144027
1566,0.142323
1557,0.140843
1548,0.139573
1539,0.138453
1530,0.137512
1521,0.136644
1512,0.135895
1503,0.135366
1494,0.134832
1485,0.134294
1476,0.134002
1467,0.13363
1458,0.133303
1449,0.133083
1440,0.132848
1431,0.132624
1422,0.132361
1413,0.132188
1404,0.131991
1395,0.131848
1386,0.131572
1377,0.131452
1368,0.131138
1359,0.130959
1350,0.130888
1341,0.13081
1332,0.13081
1323,0.130894
1314,0.13108
1305,0.131308
1296,0.131659
1287,0.132182
1278,0.132819
1269,0.133666
1260,0.134607
1251,0.13577
1242,0.137075
1233,0.138614
1224,0.140293
1215,0.142203
1206,0.144424
1197,0.146723
1188,0.149413
1179,0.152247
1170,0.155131
1161,0.158035
1152,0.161111
1143,0.164665
1134,0.168784
1125,0.173525
1116,0.178626
1107,0.183533
1098,0.187655
1089,0.190475
1080,0.192293
1071,0.193913
1062,0.196117
1053,0.199111
1044,0.202512
1035,0.205274
1026,0.206603
1017,0.206285
1008,0.204742
999,0.202536
990,0.199681
981,0.196387
972,0.193346
963,0.19061
954,0.188069
945,0.185056
936,0.181634
927,0.178119
918,0.174725
909,0.171015
900,0.168001
891,0.162127
882,0.165282
873,0.160589
864,0.161285
855,0.158903
846,0.158912
837,0.158636
828,0.159438
819,0.159661
810,0.16217
801,0.164027
792,0.166032
783,0.168038
774,0.171056
765,0.174445
756,0.179393
747,0.183281
738,0.185437
729,0.186066
720,0.187094
711,0.188628
702,0.189784
693,0.18921
684,0.187562
675,0.186122
666,0.184448
657,0.183035
648,0.181998
639,0.180845
630,0.179557
621,0.178942
612,0.178872
603,0.180113
594,0.182454
585,0.18383
576,0.184598
567,0.187785
558,0.192011
549,0.192612
540,0.191735
531,0.194525
522,0.197586
513,0.198159
504,0.200384
495,0.205448
486,0.205291
477,0.204206
468,0.208859
459,0.207658
450,0.207952
441,0.211562
432,0.213796
423,0.21792
414,0.219486
405,0.223661
396,0.228385
387,0.231433
378,0.237916
369,0.244937
360,0.249925
351,0.260087
342,0.265607
333,0.275481
324,0.286258
315,0.302177
306,0.321385
297,0.341931
288,0.366479
279,0.386597
270,0.395418
261,0.389037
252,0.372792
243,0.342216
234,0.31166
225,0.300582
216,0.395902
207,0.569072
200,0.548309