File: AbsorptionAnalysis/AbsorptionBGSubstraction_Pfolh2017/DodecaneCryostatFilm/Dodecane_KIT_Vac_1175.txt
Dodecane_KIT_Vac_1175
Wavelength (nm),Abs
2655,0.0745261
2646,0.0782558
2637,0.0782187
2628,0.076711
2619,0.0781223
2610,0.0772951
2601,0.0781798
2592,0.0787534
2583,0.0800653
2574,0.0797793
2565,0.0789211
2556,0.0795597
2547,0.080175
2538,0.0798876
2529,0.0803212
2520,0.0806821
2511,0.0809281
2502,0.0812978
2493,0.0816124
2484,0.0823622
2475,0.0820225
2466,0.0825465
2457,0.0827837
2448,0.0832951
2439,0.0837161
2430,0.0840527
2421,0.0841937
2412,0.0846368
2403,0.0853004
2394,0.0859871
2385,0.0866603
2376,0.0871311
2367,0.0877816
2358,0.0887363
2349,0.0893774
2340,0.0900726
2331,0.0909271
2322,0.0917759
2313,0.0927181
2304,0.094024
2295,0.0949319
2286,0.0957916
2277,0.0968209
2268,0.0987395
2259,0.10012
2250,0.101299
2241,0.102605
2232,0.104291
2223,0.105923
2214,0.107748
2205,0.109881
2196,0.111479
2187,0.113252
2178,0.115085
2169,0.117199
2160,0.119366
2151,0.121639
2142,0.123855
2133,0.126236
2124,0.128708
2115,0.131275
2106,0.134006
2097,0.136984
2088,0.140085
2079,0.143222
2070,0.14652
2061,0.149833
2052,0.15353
2043,0.157031
2034,0.160645
2025,0.164227
2016,0.167935
2007,0.171382
1998,0.17504
1989,0.178578
1980,0.181844
1971,0.185141
1962,0.188287
1953,0.191283
1944,0.194474
1935,0.197722
1926,0.200944
1917,0.204186
1908,0.207231
1899,0.211038
1890,0.214076
1881,0.216883
1872,0.219464
1863,0.221779
1854,0.223543
1845,0.224399
1836,0.225077
1827,0.224769
1818,0.223995
1809,0.22281
1800,0.221023
1791,0.218718
1782,0.216208
1773,0.213433
1764,0.210497
1755,0.207645
1746,0.204665
1737,0.201673
1728,0.198456
1719,0.195068
1710,0.191736
1701,0.188065
1692,0.18431
1683,0.180605
1674,0.176851
1665,0.173268
1656,0.169606
1647,0.166046
1638,0.162528
1629,0.159105
1620,0.155839
1611,0.152678
1602,0.149815
1593,0.14737
1584,0.145234
1575,0.143266
1566,0.141619
1557,0.140141
1548,0.138871
1539,0.13779
1530,0.13682
1521,0.135982
1512,0.135283
1503,0.134735
1494,0.134215
1485,0.133672
1476,0.13329
1467,0.133081
1458,0.132753
1449,0.132489
1440,0.132261
1431,0.132066
1422,0.13179
1413,0.131606
1404,0.131406
1395,0.131303
1386,0.130937
1377,0.130934
1368,0.130604
1359,0.130409
1350,0.130311
1341,0.130251
1332,0.130282
1323,0.13038
1314,0.130556
1305,0.130865
1296,0.131198
1287,0.131686
1278,0.132359
1269,0.133204
1260,0.134133
1251,0.13535
1242,0.136677
1233,0.138203
1224,0.139852
1215,0.141792
1206,0.144035
1197,0.14632
1188,0.149152
1179,0.151909
1170,0.154778
1161,0.157685
1152,0.160764
1143,0.1643
1134,0.168429
1125,0.173207
1116,0.178351
1107,0.183274
1098,0.187416
1089,0.190192
1080,0.191979
1071,0.193581
1062,0.195741
1053,0.198725
1044,0.20219
1035,0.204957
1026,0.206287
1017,0.205915
1008,0.204371
999,0.202166
990,0.199254
981,0.195881
972,0.192853
963,0.190169
954,0.18759
945,0.18464
936,0.181188
927,0.177636
918,0.174018
909,0.170545
900,0.167265
891,0.157672
882,0.167454
873,0.163277
864,0.160252
855,0.157234
846,0.158169
837,0.158005
828,0.158521
819,0.15951
810,0.161795
801,0.163882
792,0.165248
783,0.167426
774,0.170267
765,0.17407
756,0.178929
747,0.182883
738,0.184638
729,0.185725
720,0.186449
711,0.188132
702,0.189321
693,0.188602
684,0.187015
675,0.185484
666,0.183793
657,0.182499
648,0.181341
639,0.180217
630,0.179026
621,0.178429
612,0.178239
603,0.179572
594,0.181934
585,0.183234
576,0.184228
567,0.187394
558,0.191577
549,0.192405
540,0.19132
531,0.194254
522,0.197079
513,0.197572
504,0.199847
495,0.204966
486,0.204861
477,0.20404
468,0.208685
459,0.207341
450,0.207447
441,0.211236
432,0.213474
423,0.217444
414,0.219765
405,0.223502
396,0.228562
387,0.231513
378,0.237899
369,0.245298
360,0.25012
351,0.260222
342,0.265926
333,0.275678
324,0.286538
315,0.302423
306,0.320651
297,0.342238
288,0.366721
279,0.386685
270,0.395486
261,0.389724
252,0.373563
243,0.343339
234,0.313558
225,0.30182
216,0.396747
207,0.571281
200,0.55061