File: AbsorptionAnalysis/Absorption_Test_BackgroundSubstractions/SurfSol.csv
SurfactantFilm,,SurfactantSolution,
Wavelength(nm),Absorption,Wavelength(nm),Absorption
250,0.025274,250,0.75243
256,0.028897,256,0.71856
262,0.025668,262,0.70961
268,0.024846,268,0.71567
274,0.024791,274,0.73399
280,0.024085,280,0.74341
286,0.023001,286,0.74268
292,0.021919,292,0.72573
298,0.019821,298,0.69413
304,0.017563,304,0.66361
310,0.01646,310,0.62811
316,0.015835,316,0.60461
322,0.015435,322,0.59124
328,0.014919,328,0.55465
334,0.014092,334,0.52274
340,0.013695,340,0.50698
346,0.013097,346,0.49676
352,0.013652,352,0.49014
358,0.013034,358,0.45949
364,0.012532,364,0.43682
370,0.012304,370,0.44964
376,0.01253,376,0.45909
382,0.011928,382,0.42047
388,0.011295,388,0.38176
394,0.010838,394,0.35265
400,0.010262,400,0.34005
406,0.010177,406,0.3442
412,0.010182,412,0.34588
418,0.010118,418,0.32706
424,0.0097386,424,0.30752
430,0.0093466,430,0.29272
436,0.0091142,436,0.28225
442,0.0089217,442,0.27654
448,0.0086755,448,0.27268
454,0.0085599,454,0.26885
460,0.0083641,460,0.26478
466,0.0082161,466,0.26003
472,0.0081414,472,0.25414
478,0.007924,478,0.24886
484,0.0079248,484,0.24515
490,0.0078625,490,0.24299
496,0.0076319,496,0.24301
502,0.0077465,502,0.24516
508,0.0078193,508,0.24721
514,0.007833,514,0.24633
520,0.0076433,520,0.24235
526,0.0074828,526,0.2381
532,0.0074891,532,0.23574
538,0.0074504,538,0.23576
544,0.0075185,544,0.23803
550,0.0076567,550,0.2438
556,0.0077408,556,0.24865
562,0.0077691,562,0.25178
568,0.0078743,568,0.25465
574,0.0079325,574,0.25649
580,0.00799,580,0.25927
586,0.0082119,586,0.26429
592,0.0081873,592,0.26294
598,0.0084389,598,0.25515
604,0.0084399,604,0.25023
610,0.0083629,610,0.24818
616,0.0082243,616,0.24722
622,0.0082322,622,0.24901
628,0.0082843,628,0.25757
634,0.0085805,634,0.27651
640,0.0088452,640,0.30423
646,0.0091738,646,0.32787
652,0.0094327,652,0.33146
658,0.0093463,658,0.31897
664,0.0093989,664,0.30447
670,0.0090314,670,0.29459
676,0.0089475,676,0.28783
682,0.008744,682,0.27797
688,0.0087182,688,0.26901
694,0.0085634,694,0.2635
700,0.0084819,700,0.2618
706,0.0083561,706,0.26933
712,0.0084925,712,0.28903
718,0.0087911,718,0.31551
724,0.0088814,724,0.32839
730,0.0092042,730,0.32001
736,0.0092013,736,0.30316
742,0.009014,742,0.28328
748,0.0086907,748,0.26385
754,0.008372,754,0.24789
760,0.0079605,760,0.23584
766,0.007993,766,0.22726
772,0.0075963,772,0.22107
778,0.0076551,778,0.21755
784,0.0074358,784,0.21659
790,0.0074187,790,0.21732
796,0.0073322,796,0.21767
802,0.0073319,802,0.21606
808,0.0072347,808,0.21419
814,0.0072622,814,0.21091
820,0.0072108,820,0.20626
826,0.0071713,826,0.20061
832,0.0069789,832,0.19483
838,0.0068572,838,0.18968
844,0.0067227,844,0.18588
850,0.0066281,850,0.18362
856,0.0065089,856,0.18262
862,0.0064237,862,0.18268
868,0.0063745,868,0.18332
874,0.0061895,874,0.18396
880,0.0062006,880,0.18402
886,0.005988,886,0.18349
892,0.005925,892,0.18314
898,0.0059826,898,0.18388
904,0.0058145,904,0.18773
910,0.0057494,910,0.19471
916,0.0057833,916,0.1954
922,0.0058374,922,0.18875
928,0.0058288,928,0.18604
934,0.0058796,934,0.18945
940,0.0059466,940,0.19675
946,0.0060227,946,0.20758
952,0.0060064,952,0.21622
958,0.0060694,958,0.21296
964,0.0062073,964,0.20737
970,0.0062956,970,0.20793
976,0.0063318,976,0.21243
982,0.0064757,982,0.21661
988,0.0065848,988,0.21949
994,0.0066377,994,0.22207
1000,0.0067124,1000,0.22531
1006,0.0067092,1006,0.22975
1012,0.0067537,1012,0.23735
1018,0.006705,1018,0.24734
1024,0.0067769,1024,0.2504
1030,0.0068363,1030,0.24186
1036,0.0067612,1036,0.23135
1042,0.0068526,1042,0.22512
1048,0.0069046,1048,0.22314
1054,0.006796,1054,0.22362
1060,0.0068723,1060,0.22382
1066,0.0068525,1066,0.22037
1072,0.0068444,1072,0.21573
1078,0.0067807,1078,0.21621
1084,0.0068457,1084,0.22341
1090,0.0069034,1090,0.2394
1096,0.0069501,1096,0.26932
1102,0.0070911,1102,0.31824
1108,0.0073596,1108,0.38162
1114,0.0076144,1114,0.43505
1120,0.0079676,1120,0.46183
1126,0.0084965,1126,0.45872
1132,0.0089157,1132,0.43008
1138,0.0093297,1138,0.39812
1144,0.0097958,1144,0.37014
1150,0.010009,1150,0.34708
1156,0.010169,1156,0.33656
1162,0.010203,1162,0.34047
1168,0.010212,1168,0.35609
1174,0.010149,1174,0.37762
1180,0.010056,1180,0.39543
1186,0.009944,1186,0.39641
1192,0.0098253,1192,0.37289
1198,0.0097324,1198,0.33515
1204,0.00964,1204,0.30033
1210,0.0094806,1210,0.27656
1216,0.0093249,1216,0.26167
1222,0.0090981,1222,0.25354
1228,0.0089677,1228,0.25272
1234,0.0086171,1234,0.26098
1240,0.0085085,1240,0.27856
1246,0.008258,1246,0.29989
1252,0.0081987,1252,0.31508
1258,0.0081046,1258,0.31781
1264,0.0081045,1264,0.31018
1270,0.008089,1270,0.29858
1276,0.0081748,1276,0.28882
1282,0.0082076,1282,0.28208
1288,0.0082487,1288,0.27449
1294,0.0082367,1294,0.26274
1300,0.0081852,1300,0.24778
1306,0.0081201,1306,0.23272
1312,0.0079914,1312,0.21932
1318,0.0077872,1318,0.20842
1324,0.0075789,1324,0.19906
1330,0.007404,1330,0.19076
1336,0.0070776,1336,0.18307
1342,0.0069773,1342,0.17589
1348,0.0067054,1348,0.16923
1354,0.0064968,1354,0.16324
1360,0.0063514,1360,0.15842
1366,0.0062584,1366,0.15472
1372,0.006191,1372,0.15184
1378,0.005883,1378,0.14969
1384,0.005968,1384,0.14636
1390,0.005764,1390,0.14442
1396,0.0056184,1396,0.14205
1402,0.0056296,,
1408,0.0055417,,
1414,0.005406,,
1420,0.0054161,,
1426,0.0052778,,
1432,0.0052846,,
1438,0.0052206,,
1444,0.0051854,,
1450,0.0051291,,
1456,0.0050402,,
1462,0.0049676,,
1468,0.0048481,,
1474,0.0047637,,
1480,0.0046479,,
1486,0.0046007,,
1492,0.0044818,,
1498,0.0044003,,
1504,0.00428,,
1510,0.0042671,,
1516,0.0042301,,
1522,0.0041042,,
1528,0.0040708,,
1534,0.0040329,,
1540,0.003952,,
1546,0.0039143,,
1552,0.0038888,,
1558,0.0038532,,
1564,0.0038946,,
1570,0.0038092,,
1576,0.0037638,,
1582,0.0036733,,
1588,0.0037236,,
1594,0.0036311,,
1600,0.0036005,,
1606,0.0036077,,
1612,0.0034917,,
1618,0.0035082,,
1624,0.0034404,,
1630,0.0033879,,
1636,0.0033417,,
1642,0.0032782,,
1648,0.0032379,,
1654,0.0031894,,
1660,0.003185,,
1666,0.0031393,,
1672,0.003124,,
1678,0.0031834,,
1684,0.003067,,
1690,0.003043,,
1696,0.0029351,,
1702,0.0030403,,
1708,0.0029747,,
1714,0.002911,,
1720,0.0029322,,
1726,0.0029715,,
1732,0.0029514,,
1738,0.0028843,,
1744,0.0028964,,
1750,0.0028399,,
1756,0.002904,,
1762,0.0028387,,
1768,0.0027754,,
1774,0.0027732,,
1780,0.0027468,,
1786,0.002743,,
1792,0.0026961,,
1798,0.0026978,,
1804,0.0026978,,
1810,0.0027269,,
1816,0.0027142,,
1822,0.0027257,,
1828,0.0027546,,
1834,0.0027226,,
1840,0.0027345,,
1846,0.0028061,,
1852,0.0027938,,
1858,0.0027531,,
1864,0.0027468,,
1870,0.0026255,,
1876,0.0027441,,
1882,0.0026868,,
1888,0.0027126,,
1894,0.0026343,,
1900,0.0026651,,
1906,0.00261,,
1912,0.0026782,,
1918,0.0026768,,
1924,0.0026777,,
1930,0.0026432,,
1936,0.0026624,,
1942,0.0026743,,
1948,0.0026518,,
1954,0.0026365,,
1960,0.0026368,,
1966,0.0026901,,
1972,0.0026592,,
1978,0.0027196,,
1984,0.0026705,,
1990,0.0027177,,
1996,0.002599,,
2000,0.0026264,,