File: Absorption_Analysis/Absorption - Correction Files/Absorption BG Susbtraction/DodecaneCryostatFilm/Dodecane_KIT_Vac_1.txt
Dodecane_KIT_Vac_1
Wavelength (nm),Abs
2655,0.072715
2646,0.0748104
2637,0.0745912
2628,0.072145
2619,0.074795
2610,0.0728759
2601,0.0742658
2592,0.07559634
2583,0.0761227
2574,0.0754329
2565,0.0746402
2556,0.075433
2547,0.0754057
2538,0.0753953
2529,0.0759338
2520,0.0761723
2511,0.0763212
2502,0.0767106
2493,0.0767209
2484,0.0774061
2475,0.0772982
2466,0.0775207
2457,0.0778098
2448,0.0783477
2439,0.0786833
2430,0.0789554
2421,0.0792063
2412,0.0794798
2403,0.0801495
2394,0.0808856
2385,0.0814181
2376,0.0818983
2367,0.082431
2358,0.0835014
2349,0.0839399
2340,0.0846604
2331,0.0854799
2322,0.0862826
2313,0.0870813
2304,0.0884344
2295,0.0892917
2286,0.0901619
2277,0.0909904
2268,0.0925789
2259,0.0943496
2250,0.095435
2241,0.0967969
2232,0.0982706
2223,0.0999589
2214,0.101651
2205,0.103528
2196,0.105121
2187,0.106545
2178,0.1087
2169,0.110625
2160,0.112746
2151,0.114597
2142,0.11696
2133,0.119187
2124,0.121526
2115,0.123913
2106,0.126818
2097,0.129474
2088,0.132331
2079,0.135484
2070,0.138438
2061,0.141762
2052,0.145085
2043,0.148571
2034,0.151802
2025,0.155229
2016,0.158774
2007,0.162194
1998,0.165479
1989,0.168868
1980,0.171837
1971,0.175124
1962,0.178058
1953,0.180943
1944,0.184012
1935,0.187031
1926,0.190233
1917,0.193197
1908,0.196067
1899,0.199824
1890,0.202725
1881,0.205366
1872,0.207769
1863,0.210057
1854,0.211734
1845,0.212744
1836,0.213511
1827,0.213483
1818,0.212842
1809,0.211775
1800,0.210115
1791,0.20821
1782,0.206042
1773,0.203523
1764,0.201018
1755,0.19835
1746,0.19561
1737,0.192923
1728,0.19
1719,0.186893
1710,0.183719
1701,0.180299
1692,0.176888
1683,0.173347
1674,0.169733
1665,0.166468
1656,0.162873
1647,0.159474
1638,0.156166
1629,0.152817
1620,0.149673
1611,0.146697
1602,0.143892
1593,0.14146
1584,0.139333
1575,0.137386
1566,0.13576
1557,0.134251
1548,0.132982
1539,0.131863
1530,0.130898
1521,0.13008
1512,0.129274
1503,0.128718
1494,0.128191
1485,0.127618
1476,0.127259
1467,0.126957
1458,0.126587
1449,0.126323
1440,0.12607
1431,0.125824
1422,0.125551
1413,0.125353
1404,0.125201
1395,0.125064
1386,0.124826
1377,0.124649
1368,0.124323
1359,0.12412
1350,0.124029
1341,0.123928
1332,0.123936
1323,0.123972
1314,0.124144
1305,0.124409
1296,0.124711
1287,0.125212
1278,0.125794
1269,0.126573
1260,0.127481
1251,0.12856
1242,0.129817
1233,0.131294
1224,0.132884
1215,0.134804
1206,0.136939
1197,0.139137
1188,0.141804
1179,0.144546
1170,0.14738
1161,0.150249
1152,0.153303
1143,0.156814
1134,0.160921
1125,0.165608
1116,0.170606
1107,0.175414
1098,0.179409
1089,0.182199
1080,0.184066
1071,0.185768
1062,0.188049
1053,0.191048
1044,0.194375
1035,0.197088
1026,0.198343
1017,0.197964
1008,0.196529
999,0.194404
990,0.191561
981,0.188357
972,0.185367
963,0.182728
954,0.180113
945,0.177096
936,0.173679
927,0.170258
918,0.166636
909,0.16303
900,0.159773
891,0.156431
882,0.155741
873,0.15756
864,0.153479
855,0.151594
846,0.151731
837,0.150158
828,0.150891
819,0.152151
810,0.153386
801,0.154911
792,0.15745
783,0.159432
774,0.162194
765,0.165597
756,0.170119
747,0.174298
738,0.176061
729,0.176959
720,0.177779
711,0.179406
702,0.180444
693,0.179779
684,0.178354
675,0.176794
666,0.175083
657,0.173645
648,0.172616
639,0.171428
630,0.170155
621,0.169394
612,0.169355
603,0.17055
594,0.172771
585,0.174015
576,0.175103
567,0.178269
558,0.182028
549,0.182536
540,0.181791
531,0.184613
522,0.187581
513,0.188026
504,0.190243
495,0.195146
486,0.195071
477,0.193963
468,0.198539
459,0.1975272
450,0.197348
441,0.201168
432,0.203457
423,0.207309
414,0.208817
405,0.212719
396,0.217232
387,0.220184
378,0.226617
369,0.233608
360,0.238703
351,0.248478
342,0.254836
333,0.265063
324,0.275188
315,0.291585
306,0.310686
297,0.331916
288,0.35607
279,0.376191
270,0.383913
261,0.377216
252,0.361146
243,0.330684
234,0.299933
225,0.289278
216,0.385373
207,0.55802
200,0.53685