File: AbsorptionAnalysis/Absorption_Test_BackgroundSubstractions/DodecaneCryostatFilm/Dodecane_KIT_Temp_85.txt
Dodecane_KIT_Temp_85
Wavelength (nm),Abs
2655,0.0837566
2646,0.0823011
2637,0.0838565
2628,0.0837422
2619,0.0849758
2610,0.085307
2601,0.0848879
2592,0.0839712
2583,0.0823012
2574,0.0807889
2565,0.0832054
2556,0.0842973
2547,0.0846816
2538,0.0841587
2529,0.0844985
2520,0.0844357
2511,0.0845313
2502,0.0851844
2493,0.0851298
2484,0.0856167
2475,0.0857014
2466,0.0861178
2457,0.0865778
2448,0.0869425
2439,0.0874005
2430,0.0878223
2421,0.0882047
2412,0.0887033
2403,0.089362
2394,0.0899937
2385,0.0904164
2376,0.0909772
2367,0.0919064
2358,0.0926284
2349,0.0933557
2340,0.0940954
2331,0.0949169
2322,0.0958821
2313,0.0970122
2304,0.0978717
2295,0.0990969
2286,0.100067
2277,0.101065
2268,0.10247
2259,0.103993
2250,0.105332
2241,0.106586
2232,0.108645
2223,0.110226
2214,0.112171
2205,0.11398
2196,0.115851
2187,0.117897
2178,0.119754
2169,0.122013
2160,0.123877
2151,0.126351
2142,0.128682
2133,0.131034
2124,0.133614
2115,0.136074
2106,0.138886
2097,0.142028
2088,0.1448
2079,0.148076
2070,0.151284
2061,0.154807
2052,0.158307
2043,0.161911
2034,0.165506
2025,0.169215
2016,0.172918
2007,0.176435
1998,0.180133
1989,0.183618
1980,0.186957
1971,0.190341
1962,0.19337
1953,0.196593
1944,0.199665
1935,0.202885
1926,0.205959
1917,0.209285
1908,0.212509
1899,0.215931
1890,0.219175
1881,0.221756
1872,0.224086
1863,0.226504
1854,0.228095
1845,0.229106
1836,0.229844
1827,0.22928
1818,0.228651
1809,0.227258
1800,0.225385
1791,0.222959
1782,0.220482
1773,0.217638
1764,0.214595
1755,0.211679
1746,0.20862
1737,0.205632
1728,0.202321
1719,0.199047
1710,0.19555
1701,0.191946
1692,0.188141
1683,0.184385
1674,0.180654
1665,0.17713
1656,0.173396
1647,0.169821
1638,0.166328
1629,0.162826
1620,0.15963
1611,0.156463
1602,0.153723
1593,0.151272
1584,0.149148
1575,0.147258
1566,0.145627
1557,0.144176
1548,0.142919
1539,0.141835
1530,0.14083
1521,0.140087
1512,0.13931
1503,0.138797
1494,0.138271
1485,0.137824
1476,0.137497
1467,0.137176
1458,0.136868
1449,0.136575
1440,0.13637
1431,0.136195
1422,0.135924
1413,0.135711
1404,0.135583
1395,0.135523
1386,0.135273
1377,0.135021
1368,0.134834
1359,0.134615
1350,0.134502
1341,0.134498
1332,0.134481
1323,0.134587
1314,0.134795
1305,0.135078
1296,0.135462
1287,0.136003
1278,0.136738
1269,0.137536
1260,0.138569
1251,0.139758
1242,0.141111
1233,0.142627
1224,0.144391
1215,0.14636
1206,0.14859
1197,0.150956
1188,0.153704
1179,0.156574
1170,0.159484
1161,0.162449
1152,0.165569
1143,0.169134
1134,0.173283
1125,0.178079
1116,0.183174
1107,0.188148
1098,0.19221
1089,0.195007
1080,0.196882
1071,0.198542
1062,0.200792
1053,0.203781
1044,0.20718
1035,0.209844
1026,0.211104
1017,0.210689
1008,0.209132
999,0.206884
990,0.203754
981,0.200439
972,0.197384
963,0.194802
954,0.192079
945,0.189006
936,0.18558
927,0.182017
918,0.178402
909,0.17477
900,0.171748
891,0.172897
882,0.174199
873,0.168818
864,0.165593
855,0.164108
846,0.163723
837,0.16373
828,0.165053
819,0.165553
810,0.167685
801,0.169527
792,0.171736
783,0.17374
774,0.176593
765,0.180427
756,0.185159
747,0.189187
738,0.190849
729,0.191851
720,0.192835
711,0.194594
702,0.195404
693,0.194821
684,0.193475
675,0.191863
666,0.190103
657,0.188859
648,0.187796
639,0.186695
630,0.185587
621,0.184843
612,0.184805
603,0.186137
594,0.188462
585,0.189931
576,0.190782
567,0.194039
558,0.198415
549,0.198759
540,0.197969
531,0.200824
522,0.203813
513,0.20418
504,0.206505
495,0.211521
486,0.210975
477,0.210124
468,0.214649
459,0.213296
450,0.213871
441,0.217783
432,0.219815
423,0.223783
414,0.225615
405,0.229761
396,0.23457
387,0.238197
378,0.244385
369,0.251488
360,0.256632
351,0.266437
342,0.271863
333,0.28284
324,0.293289
315,0.309685
306,0.328319
297,0.35022
288,0.37385
279,0.394331
270,0.402948
261,0.396574
252,0.380587
243,0.350158
234,0.320797
225,0.312575
216,0.412248
207,0.57706
200,0.558188