File: AbsorptionAnalysis/Absorption_Test_BackgroundSubstractions/DodecaneCryostatFilm/Dodecane_KIT_Temp_75.txt
Dodecane_KIT_Temp_75
Wavelength (nm),Abs
2655,0.0824666
2646,0.0816003
2637,0.0831627
2628,0.0817125
2619,0.0831474
2610,0.0843622
2601,0.0832203
2592,0.0842795
2583,0.082656
2574,0.0821992
2565,0.0813297
2556,0.0836574
2547,0.0844549
2538,0.0838588
2529,0.0840105
2520,0.0839685
2511,0.0842443
2502,0.0845874
2493,0.084953
2484,0.084904
2475,0.0851823
2466,0.0857431
2457,0.0861279
2448,0.0864135
2439,0.0868243
2430,0.0872958
2421,0.0877273
2412,0.0880974
2403,0.088817
2394,0.0894485
2385,0.0899341
2376,0.0904073
2367,0.091271
2358,0.0920607
2349,0.0926962
2340,0.0935958
2331,0.0942274
2322,0.0953897
2313,0.0963193
2304,0.0972747
2295,0.0984725
2286,0.0994861
2277,0.100545
2268,0.10209
2259,0.10341
2250,0.104782
2241,0.106119
2232,0.107788
2223,0.10943
2214,0.111496
2205,0.113431
2196,0.114978
2187,0.117207
2178,0.118824
2169,0.12129
2160,0.12316
2151,0.125448
2142,0.127695
2133,0.130114
2124,0.132703
2115,0.135276
2106,0.138118
2097,0.141019
2088,0.143925
2079,0.147074
2070,0.150343
2061,0.153938
2052,0.157353
2043,0.16099
2034,0.164515
2025,0.168115
2016,0.171826
2007,0.17541
1998,0.179164
1989,0.182526
1980,0.185808
1971,0.189215
1962,0.192293
1953,0.195331
1944,0.19843
1935,0.201711
1926,0.20483
1917,0.207938
1908,0.211188
1899,0.214696
1890,0.217989
1881,0.220511
1872,0.222966
1863,0.225325
1854,0.226925
1845,0.227806
1836,0.228808
1827,0.228161
1818,0.227418
1809,0.226188
1800,0.224232
1791,0.221967
1782,0.219352
1773,0.216574
1764,0.213626
1755,0.210689
1746,0.207722
1737,0.204637
1728,0.20143
1719,0.198162
1710,0.194692
1701,0.191059
1692,0.187258
1683,0.183584
1674,0.179889
1665,0.17633
1656,0.172658
1647,0.169023
1638,0.16554
1629,0.162085
1620,0.158892
1611,0.155805
1602,0.153037
1593,0.150572
1584,0.148403
1575,0.146586
1566,0.144882
1557,0.143465
1548,0.142164
1539,0.141131
1530,0.14016
1521,0.139339
1512,0.138603
1503,0.138087
1494,0.137624
1485,0.137039
1476,0.136782
1467,0.136488
1458,0.136131
1449,0.135913
1440,0.135658
1431,0.135514
1422,0.135197
1413,0.135017
1404,0.134899
1395,0.134787
1386,0.134549
1377,0.134326
1368,0.134162
1359,0.133923
1350,0.133814
1341,0.133742
1332,0.133825
1323,0.133907
1314,0.134124
1305,0.134404
1296,0.134757
1287,0.135301
1278,0.135942
1269,0.136827
1260,0.137809
1251,0.138959
1242,0.140361
1233,0.141895
1224,0.143561
1215,0.145581
1206,0.147799
1197,0.150109
1188,0.152875
1179,0.155732
1170,0.158593
1161,0.161557
1152,0.164725
1143,0.168251
1134,0.17239
1125,0.177134
1116,0.182245
1107,0.187176
1098,0.191313
1089,0.194107
1080,0.195937
1071,0.197571
1062,0.199759
1053,0.202769
1044,0.206143
1035,0.208914
1026,0.210155
1017,0.209794
1008,0.208245
999,0.205959
990,0.202928
981,0.199611
972,0.196565
963,0.193937
954,0.191305
945,0.188211
936,0.184832
927,0.181273
918,0.177728
909,0.174073
900,0.170848
891,0.168049
882,0.17089
873,0.16519
864,0.164972
855,0.162475
846,0.162981
837,0.163346
828,0.164132
819,0.164757
810,0.166461
801,0.168328
792,0.170692
783,0.172521
774,0.175256
765,0.179195
756,0.184019
747,0.188007
738,0.18985
729,0.190489
720,0.191505
711,0.19326
702,0.194335
693,0.193653
684,0.192115
675,0.190634
666,0.188866
657,0.18754
648,0.186492
639,0.185455
630,0.184268
621,0.183546
612,0.183468
603,0.184804
594,0.187078
585,0.188684
576,0.189439
567,0.192638
558,0.197098
549,0.197587
540,0.196582
531,0.19948
522,0.202469
513,0.20296
504,0.205237
495,0.210224
486,0.209599
477,0.209046
468,0.213622
459,0.21245
450,0.212626
441,0.216183
432,0.218561
423,0.222511
414,0.224339
405,0.228445
396,0.233363
387,0.236581
378,0.243012
369,0.249911
360,0.255299
351,0.265306
342,0.271304
333,0.281157
324,0.291938
315,0.308355
306,0.326486
297,0.348267
288,0.372285
279,0.392487
270,0.401476
261,0.395299
252,0.379109
243,0.348251
234,0.319533
225,0.310301
216,0.408201
207,0.575107
200,0.555679