File: AbsorptionAnalysis/Absorption_Test_BackgroundSubstractions/DodecaneCryostatFilm/Dodecane_KIT_HotWater_A.txt
Dodecane_KIT_HotWater_A
Wavelength (nm),Abs
2655,0.078731
2646,0.0804083
2637,0.0811174
2628,0.0793327
2619,0.0823587
2610,0.0800456
2601,0.0806576
2592,0.0821747
2583,0.0820411
2574,0.0822989
2565,0.081856
2556,0.0818365
2547,0.0820328
2538,0.0818135
2529,0.0821695
2520,0.0825128
2511,0.0826612
2502,0.0830885
2493,0.0833785
2484,0.0837672
2475,0.0837745
2466,0.0840289
2457,0.0844389
2448,0.0848318
2439,0.0852599
2430,0.0856728
2421,0.0860124
2412,0.0864443
2403,0.0870435
2394,0.0877952
2385,0.0882963
2376,0.088862
2367,0.0894307
2358,0.0905688
2349,0.0909991
2340,0.0919778
2331,0.09259
2322,0.0936168
2313,0.0945785
2304,0.0959089
2295,0.0969653
2286,0.0975356
2277,0.0984556
2268,0.100487
2259,0.102085
2250,0.103034
2241,0.104327
2232,0.106096
2223,0.107734
2214,0.109432
2205,0.111771
2196,0.113325
2187,0.115011
2178,0.117067
2169,0.118998
2160,0.121471
2151,0.123546
2142,0.125812
2133,0.128155
2124,0.130899
2115,0.133385
2106,0.13621
2097,0.13908
2088,0.142106
2079,0.145285
2070,0.148414
2061,0.151954
2052,0.155529
2043,0.159009
2034,0.16263
2025,0.166274
2016,0.170003
2007,0.173552
1998,0.177241
1989,0.180754
1980,0.184092
1971,0.187401
1962,0.190474
1953,0.193572
1944,0.196776
1935,0.199947
1926,0.203166
1917,0.206383
1908,0.209417
1899,0.213179
1890,0.216332
1881,0.219011
1872,0.221562
1863,0.22384
1854,0.225605
1845,0.226505
1836,0.227234
1827,0.22682
1818,0.22619
1809,0.22494
1800,0.223
1791,0.220683
1782,0.218178
1773,0.215319
1764,0.212432
1755,0.209524
1746,0.206463
1737,0.203468
1728,0.200252
1719,0.196917
1710,0.193407
1701,0.189806
1692,0.186069
1683,0.182321
1674,0.178581
1665,0.174982
1656,0.171313
1647,0.167733
1638,0.164268
1629,0.160714
1620,0.157484
1611,0.154411
1602,0.151564
1593,0.149135
1584,0.146937
1575,0.14501
1566,0.143363
1557,0.141892
1548,0.140671
1539,0.139532
1530,0.13859
1521,0.137788
1512,0.137037
1503,0.136564
1494,0.135969
1485,0.135481
1476,0.135186
1467,0.134919
1458,0.134537
1449,0.134358
1440,0.134082
1431,0.133883
1422,0.133605
1413,0.133438
1404,0.133311
1395,0.133128
1386,0.132911
1377,0.132761
1368,0.132488
1359,0.13234
1350,0.132223
1341,0.132157
1332,0.132149
1323,0.132274
1314,0.132452
1305,0.13278
1296,0.133111
1287,0.133633
1278,0.134314
1269,0.135151
1260,0.136138
1251,0.13729
1242,0.138671
1233,0.140182
1224,0.141896
1215,0.143852
1206,0.146077
1197,0.148397
1188,0.151131
1179,0.153968
1170,0.156909
1161,0.159809
1152,0.162927
1143,0.166449
1134,0.170597
1125,0.175395
1116,0.180515
1107,0.185461
1098,0.189566
1089,0.19236
1080,0.194143
1071,0.195754
1062,0.198
1053,0.200974
1044,0.204388
1035,0.207148
1026,0.208427
1017,0.208096
1008,0.206518
999,0.20431
990,0.201381
981,0.197944
972,0.194954
963,0.192278
954,0.189655
945,0.186673
936,0.183136
927,0.179778
918,0.176255
909,0.172481
900,0.169168
891,0.160816
882,0.167848
873,0.164803
864,0.164108
855,0.161938
846,0.160877
837,0.16073
828,0.162074
819,0.162671
810,0.164745
801,0.16635
792,0.168594
783,0.170499
774,0.173183
765,0.177244
756,0.182056
747,0.1858
738,0.187972
729,0.188586
720,0.189546
711,0.191334
702,0.192445
693,0.191884
684,0.19026
675,0.18887
666,0.187002
657,0.185668
648,0.184555
639,0.183527
630,0.182238
621,0.181557
612,0.18145
603,0.1828
594,0.18518
585,0.186656
576,0.187466
567,0.190698
558,0.194815
549,0.195539
540,0.194391
531,0.197366
522,0.200388
513,0.200848
504,0.203217
495,0.208214
486,0.207901
477,0.20714
468,0.211888
459,0.210347
450,0.210435
441,0.214435
432,0.216771
423,0.22072
414,0.222391
405,0.226223
396,0.231355
387,0.234867
378,0.240803
369,0.247968
360,0.253342
351,0.263035
342,0.268524
333,0.278647
324,0.288969
315,0.305464
306,0.324193
297,0.345954
288,0.369869
279,0.389784
270,0.398597
261,0.392716
252,0.377065
243,0.346491
234,0.317275
225,0.305924
216,0.402619
207,0.574614
200,0.554666