File: AbsorptionAnalysis/Absorption_Test_BackgroundSubstractions/DodecaneCryostatFilm/Dodecane_KIT_Air_B.txt
Dodecane_KIT_Air_B
Wavelength (nm),Abs
2655,0.0855034
2646,0.0839519
2637,0.0845325
2628,0.0849138
2619,0.0861016
2610,0.0861447
2601,0.0846798
2592,0.0850203
2583,0.0833989
2574,0.0826826
2565,0.0830664
2556,0.0843909
2547,0.0850591
2538,0.0842999
2529,0.0843869
2520,0.0846071
2511,0.0847494
2502,0.0852071
2493,0.0851892
2484,0.0854918
2475,0.0857604
2466,0.0861588
2457,0.0866063
2448,0.087055
2439,0.0875774
2430,0.088018
2421,0.0883165
2412,0.0889399
2403,0.0896731
2394,0.0902813
2385,0.0907839
2376,0.0913038
2367,0.0922497
2358,0.0932397
2349,0.0938083
2340,0.0947643
2331,0.0955134
2322,0.096579
2313,0.0977102
2304,0.0987105
2295,0.0997862
2286,0.100701
2277,0.101601
2268,0.103384
2259,0.104743
2250,0.105948
2241,0.107796
2232,0.1097
2223,0.111509
2214,0.113269
2205,0.115362
2196,0.116962
2187,0.119465
2178,0.121304
2169,0.123642
2160,0.125518
2151,0.128064
2142,0.130508
2133,0.132976
2124,0.135702
2115,0.138336
2106,0.141409
2097,0.14452
2088,0.147384
2079,0.150966
2070,0.154252
2061,0.158005
2052,0.161595
2043,0.165472
2034,0.169025
2025,0.173071
2016,0.176988
2007,0.180725
1998,0.184425
1989,0.188144
1980,0.191641
1971,0.195023
1962,0.198245
1953,0.20151
1944,0.204901
1935,0.208164
1926,0.211261
1917,0.214713
1908,0.217906
1899,0.221509
1890,0.224705
1881,0.227327
1872,0.22962
1863,0.231969
1854,0.233375
1845,0.234309
1836,0.234885
1827,0.234081
1818,0.233254
1809,0.231829
1800,0.229615
1791,0.227172
1782,0.224464
1773,0.221335
1764,0.218294
1755,0.214986
1746,0.211759
1737,0.208566
1728,0.205135
1719,0.201645
1710,0.197881
1701,0.194159
1692,0.190108
1683,0.186261
1674,0.1823
1665,0.17858
1656,0.174755
1647,0.170929
1638,0.167336
1629,0.163795
1620,0.160567
1611,0.157396
1602,0.154438
1593,0.151862
1584,0.149655
1575,0.14772
1566,0.146024
1557,0.144459
1548,0.143244
1539,0.142116
1530,0.141141
1521,0.140378
1512,0.139622
1503,0.139127
1494,0.138508
1485,0.138031
1476,0.137778
1467,0.137453
1458,0.13709
1449,0.13688
1440,0.136574
1431,0.136401
1422,0.136017
1413,0.135853
1404,0.135829
1395,0.135642
1386,0.135442
1377,0.135099
1368,0.134936
1359,0.134758
1350,0.134595
1341,0.134494
1332,0.134588
1323,0.13464
1314,0.134874
1305,0.135097
1296,0.135596
1287,0.136098
1278,0.136789
1269,0.137748
1260,0.138769
1251,0.13986
1242,0.14146
1233,0.142974
1224,0.144764
1215,0.146736
1206,0.149043
1197,0.151316
1188,0.15425
1179,0.157127
1170,0.160087
1161,0.162999
1152,0.166131
1143,0.169747
1134,0.173895
1125,0.178651
1116,0.183874
1107,0.188851
1098,0.192984
1089,0.195745
1080,0.197507
1071,0.198957
1062,0.201192
1053,0.204226
1044,0.207619
1035,0.210306
1026,0.211472
1017,0.211161
1008,0.20951
999,0.207264
990,0.204298
981,0.200623
972,0.197585
963,0.19494
954,0.192366
945,0.189229
936,0.185698
927,0.182421
918,0.178784
909,0.175279
900,0.172002
891,0.171821
882,0.169997
873,0.168028
864,0.166467
855,0.16423
846,0.163296
837,0.164
828,0.164045
819,0.165368
810,0.166987
801,0.168888
792,0.171246
783,0.173421
774,0.175941
765,0.179954
756,0.185064
747,0.189058
738,0.190937
729,0.191668
720,0.192433
711,0.19443
702,0.195415
693,0.194838
684,0.193308
675,0.191829
666,0.190191
657,0.188636
648,0.187716
639,0.186587
630,0.185389
621,0.184659
612,0.184486
603,0.185753
594,0.188464
585,0.190017
576,0.19065
567,0.19374
558,0.198411
549,0.198934
540,0.197678
531,0.200825
522,0.20377
513,0.204213
504,0.206613
495,0.211733
486,0.211221
477,0.21054
468,0.215134
459,0.213882
450,0.213961
441,0.218023
432,0.219858
423,0.224106
414,0.225863
405,0.229942
396,0.234745
387,0.238192
378,0.24422
369,0.251647
360,0.256857
351,0.266296
342,0.272166
333,0.282768
324,0.293529
315,0.309501
306,0.328332
297,0.349846
288,0.37385
279,0.39404
270,0.402624
261,0.396504
252,0.380741
243,0.350395
234,0.322158
225,0.312773
216,0.411618
207,0.582649
200,0.567973