File: AbsorptionAnalysis/Absorption_Test_BackgroundSubstractions/DodecaneCryostatFilm/Dodecane_KIT_N2_C.txt
Dodecane_KIT_N2_C
Wavelength (nm),Abs
2655,0.0766448
2646,0.0799249
2637,0.0793499
2628,0.0774163
2619,0.0788981
2610,0.077743
2601,0.0789996
2592,0.0801543
2583,0.0806291
2574,0.0807441
2565,0.0800158
2556,0.080751
2547,0.0806156
2538,0.0809199
2529,0.0812492
2520,0.0813913
2511,0.0816709
2502,0.0821228
2493,0.082469
2484,0.0829224
2475,0.0827194
2466,0.0832108
2457,0.0833703
2448,0.0839837
2439,0.0843651
2430,0.0847468
2421,0.0849004
2412,0.0853983
2403,0.0860349
2394,0.0867521
2385,0.0873474
2376,0.0879798
2367,0.0884813
2358,0.0894334
2349,0.0902092
2340,0.090831
2331,0.0917635
2322,0.0925341
2313,0.0934726
2304,0.0949237
2295,0.0956497
2286,0.0964898
2277,0.0977793
2268,0.0995
2259,0.101082
2250,0.102431
2241,0.103682
2232,0.105084
2223,0.106919
2214,0.108788
2205,0.110881
2196,0.112357
2187,0.114169
2178,0.116075
2169,0.118083
2160,0.120282
2151,0.12238
2142,0.124904
2133,0.127215
2124,0.129672
2115,0.132325
2106,0.135082
2097,0.138103
2088,0.140997
2079,0.144346
2070,0.147479
2061,0.151067
2052,0.154706
2043,0.158124
2034,0.161793
2025,0.165344
2016,0.169289
2007,0.172749
1998,0.176263
1989,0.180017
1980,0.183323
1971,0.186625
1962,0.189664
1953,0.19283
1944,0.195981
1935,0.199167
1926,0.202384
1917,0.205603
1908,0.208875
1899,0.212536
1890,0.215667
1881,0.218351
1872,0.22099
1863,0.223256
1854,0.225099
1845,0.225947
1836,0.226459
1827,0.226199
1818,0.225479
1809,0.224109
1800,0.22233
1791,0.220053
1782,0.217526
1773,0.214676
1764,0.21181
1755,0.208867
1746,0.205884
1737,0.202787
1728,0.199657
1719,0.196243
1710,0.192793
1701,0.189141
1692,0.18536
1683,0.181676
1674,0.177898
1665,0.174308
1656,0.170561
1647,0.167037
1638,0.163526
1629,0.160018
1620,0.156747
1611,0.153637
1602,0.150786
1593,0.148268
1584,0.146073
1575,0.144137
1566,0.142506
1557,0.141077
1548,0.139775
1539,0.138658
1530,0.137694
1521,0.136882
1512,0.136208
1503,0.135643
1494,0.135121
1485,0.134548
1476,0.134278
1467,0.134026
1458,0.13364
1449,0.133421
1440,0.133119
1431,0.133027
1422,0.1327
1413,0.132539
1404,0.132388
1395,0.13225
1386,0.131971
1377,0.131878
1368,0.131536
1359,0.131331
1350,0.131264
1341,0.131183
1332,0.131221
1323,0.131294
1314,0.131515
1305,0.131804
1296,0.132152
1287,0.132676
1278,0.133351
1269,0.134169
1260,0.135146
1251,0.13632
1242,0.137684
1233,0.139178
1224,0.140889
1215,0.142825
1206,0.145069
1197,0.147376
1188,0.150137
1179,0.152972
1170,0.155878
1161,0.158811
1152,0.161883
1143,0.165435
1134,0.169549
1125,0.174353
1116,0.179451
1107,0.184429
1098,0.188527
1089,0.191356
1080,0.193133
1071,0.194721
1062,0.196923
1053,0.199887
1044,0.203321
1035,0.206055
1026,0.207428
1017,0.207043
1008,0.205475
999,0.203293
990,0.200323
981,0.196985
972,0.193987
963,0.191246
954,0.188656
945,0.185703
936,0.18221
927,0.178712
918,0.175413
909,0.17173
900,0.168568
891,0.164831
882,0.166181
873,0.165119
864,0.162694
855,0.159081
846,0.159153
837,0.159055
828,0.160161
819,0.161376
810,0.162863
801,0.164877
792,0.167266
783,0.169019
774,0.17193
765,0.175754
756,0.180458
747,0.184672
738,0.186225
729,0.187275
720,0.188088
711,0.189871
702,0.190998
693,0.190283
684,0.188916
675,0.187498
666,0.185645
657,0.184422
648,0.183199
639,0.182101
630,0.180971
621,0.180107
612,0.180208
603,0.181419
594,0.183707
585,0.185211
576,0.186136
567,0.189143
558,0.193426
549,0.194168
540,0.193023
531,0.195956
522,0.199206
513,0.199467
504,0.20178
495,0.206937
486,0.206613
477,0.205873
468,0.210625
459,0.209234
450,0.20925
441,0.213123
432,0.21542
423,0.219587
414,0.221262
405,0.225308
396,0.230073
387,0.233527
378,0.239835
369,0.247194
360,0.252108
351,0.262118
342,0.267615
333,0.27802
324,0.287947
315,0.304066
306,0.322851
297,0.343879
288,0.368128
279,0.388768
270,0.397483
261,0.391451
252,0.375488
243,0.344602
234,0.315307
225,0.303902
216,0.399247
207,0.572633
200,0.551992