File: AbsorptionAnalysis/Absorption_Test_BackgroundSubstractions/DodecaneCryostatFilm/Dodecane_KIT_Temp_50.txt
Dodecane_KIT_Temp_50
Wavelength (nm),Abs
2655,0.077809
2646,0.0788847
2637,0.0800956
2628,0.0778403
2619,0.0816768
2610,0.0784521
2601,0.0796899
2592,0.0806696
2583,0.0809154
2574,0.0822487
2565,0.081627
2556,0.0812212
2547,0.0816082
2538,0.0816178
2529,0.0822099
2520,0.0824983
2511,0.0826822
2502,0.0833423
2493,0.0832261
2484,0.0837428
2475,0.0837945
2466,0.0840422
2457,0.0845685
2448,0.0848021
2439,0.0854442
2430,0.0857157
2421,0.0858685
2412,0.0863844
2403,0.0870711
2394,0.0876683
2385,0.0882795
2376,0.08886
2367,0.0894936
2358,0.0904939
2349,0.0911048
2340,0.0918266
2331,0.0926284
2322,0.0936019
2313,0.0944668
2304,0.0958253
2295,0.0967456
2286,0.0975844
2277,0.0987798
2268,0.10028
2259,0.102204
2250,0.103164
2241,0.104514
2232,0.106078
2223,0.107748
2214,0.109491
2205,0.111792
2196,0.113511
2187,0.115033
2178,0.117048
2169,0.11896
2160,0.121152
2151,0.12342
2142,0.125811
2133,0.128237
2124,0.13073
2115,0.133386
2106,0.136132
2097,0.139102
2088,0.142052
2079,0.14528
2070,0.148495
2061,0.152146
2052,0.155722
2043,0.159193
2034,0.16279
2025,0.166473
2016,0.170178
2007,0.17377
1998,0.177497
1989,0.180989
1980,0.184276
1971,0.187733
1962,0.190766
1953,0.193865
1944,0.197044
1935,0.200262
1926,0.20346
1917,0.206672
1908,0.209963
1899,0.213586
1890,0.216659
1881,0.219404
1872,0.221954
1863,0.224278
1854,0.226076
1845,0.226903
1836,0.227503
1827,0.22716
1818,0.226507
1809,0.225169
1800,0.223352
1791,0.221053
1782,0.218519
1773,0.215642
1764,0.212788
1755,0.209845
1746,0.206814
1737,0.203788
1728,0.200486
1719,0.197217
1710,0.193726
1701,0.190127
1692,0.186323
1683,0.182559
1674,0.178759
1665,0.175217
1656,0.171461
1647,0.167947
1638,0.164393
1629,0.160908
1620,0.157688
1611,0.154538
1602,0.151662
1593,0.149262
1584,0.147065
1575,0.145112
1566,0.14341
1557,0.141979
1548,0.140735
1539,0.139615
1530,0.13864
1521,0.137885
1512,0.137153
1503,0.136619
1494,0.136094
1485,0.135595
1476,0.135239
1467,0.13498
1458,0.134645
1449,0.134426
1440,0.134158
1431,0.134014
1422,0.13373
1413,0.133548
1404,0.133355
1395,0.133271
1386,0.132925
1377,0.132934
1368,0.132523
1359,0.132406
1350,0.132285
1341,0.132246
1332,0.132305
1323,0.132363
1314,0.132523
1305,0.132879
1296,0.133174
1287,0.133743
1278,0.134406
1269,0.135228
1260,0.136238
1251,0.137427
1242,0.138728
1233,0.1403
1224,0.141973
1215,0.143919
1206,0.146134
1197,0.148493
1188,0.151196
1179,0.154103
1170,0.156977
1161,0.159906
1152,0.162976
1143,0.1665
1134,0.170626
1125,0.175438
1116,0.180562
1107,0.185535
1098,0.189613
1089,0.192483
1080,0.194241
1071,0.195839
1062,0.198006
1053,0.200972
1044,0.204465
1035,0.2072
1026,0.208606
1017,0.208193
1008,0.206682
999,0.204394
990,0.201474
981,0.198138
972,0.195051
963,0.192393
954,0.189747
945,0.186836
936,0.183368
927,0.179908
918,0.176295
909,0.172706
900,0.169456
891,0.16747
882,0.168328
873,0.166048
864,0.164459
855,0.160693
846,0.160545
837,0.160345
828,0.161632
819,0.162627
810,0.164258
801,0.16618
792,0.168428
783,0.170459
774,0.173128
765,0.177135
756,0.181684
747,0.185853
738,0.187712
729,0.188514
720,0.189433
711,0.191023
702,0.192379
693,0.191684
684,0.19016
675,0.188672
666,0.186801
657,0.185489
648,0.18437
639,0.183397
630,0.182239
621,0.181604
612,0.181336
603,0.18262
594,0.18498
585,0.186518
576,0.187289
567,0.190422
558,0.194807
549,0.195447
540,0.194326
531,0.197419
522,0.200279
513,0.200835
504,0.203159
495,0.208228
486,0.207946
477,0.207048
468,0.211664
459,0.210424
450,0.210494
441,0.214527
432,0.216452
423,0.220682
414,0.222446
405,0.226714
396,0.231481
387,0.234585
378,0.240689
369,0.248172
360,0.253222
351,0.263517
342,0.268233
333,0.278578
324,0.289288
315,0.305166
306,0.323906
297,0.345512
288,0.369498
279,0.389988
270,0.398866
261,0.39255
252,0.376647
243,0.34604
234,0.316378
225,0.305222
216,0.400756
207,0.574719
200,0.554698