File: AbsorptionAnalysis/Absorption_Test_BackgroundSubstractions/DodecaneCryostatFilm/Dodecane_KIT_Vac_1300.txt
Dodecane_KIT_Vac_1300
Wavelength (nm),Abs
2655,0.0765291
2646,0.0806533
2637,0.0788331
2628,0.0774241
2619,0.0799236
2610,0.0782172
2601,0.0792042
2592,0.0800351
2583,0.0806035
2574,0.0804236
2565,0.0809831
2556,0.0807954
2547,0.0814279
2538,0.0813397
2529,0.0809894
2520,0.0818611
2511,0.0819162
2502,0.0824462
2493,0.0825982
2484,0.0831402
2475,0.0831262
2466,0.0834521
2457,0.0837636
2448,0.0843245
2439,0.0846824
2430,0.0851647
2421,0.085436
2412,0.0857531
2403,0.0864316
2394,0.087124
2385,0.0875485
2376,0.0882921
2367,0.088847
2358,0.0899477
2349,0.0904972
2340,0.0912667
2331,0.0920509
2322,0.0929059
2313,0.0939332
2304,0.0951206
2295,0.0962595
2286,0.0969448
2277,0.0981319
2268,0.0998609
2259,0.101312
2250,0.102577
2241,0.103919
2232,0.105518
2223,0.10724
2214,0.109121
2205,0.11119
2196,0.112839
2187,0.114305
2178,0.116422
2169,0.118485
2160,0.12086
2151,0.122809
2142,0.125264
2133,0.127756
2124,0.130215
2115,0.13272
2106,0.135621
2097,0.138566
2088,0.141635
2079,0.144805
2070,0.147931
2061,0.151514
2052,0.155127
2043,0.158614
2034,0.162349
2025,0.166
2016,0.169661
2007,0.173316
1998,0.176896
1989,0.180394
1980,0.183683
1971,0.187079
1962,0.190234
1953,0.193333
1944,0.196606
1935,0.199751
1926,0.20292
1917,0.206183
1908,0.209415
1899,0.213231
1890,0.216181
1881,0.218955
1872,0.221497
1863,0.223787
1854,0.225603
1845,0.226432
1836,0.227192
1827,0.226736
1818,0.226029
1809,0.224747
1800,0.222926
1791,0.220651
1782,0.218132
1773,0.21517
1764,0.212354
1755,0.209323
1746,0.206291
1737,0.203276
1728,0.200003
1719,0.196658
1710,0.19323
1701,0.189569
1692,0.185801
1683,0.182144
1674,0.178248
1665,0.174713
1656,0.171009
1647,0.167372
1638,0.163857
1629,0.160351
1620,0.157092
1611,0.153997
1602,0.151097
1593,0.148688
1584,0.146433
1575,0.14454
1566,0.142833
1557,0.141376
1548,0.140145
1539,0.13901
1530,0.138051
1521,0.13724
1512,0.136497
1503,0.13595
1494,0.135415
1485,0.134903
1476,0.134599
1467,0.134296
1458,0.133964
1449,0.133771
1440,0.13348
1431,0.133319
1422,0.133036
1413,0.132865
1404,0.132698
1395,0.13257
1386,0.13223
1377,0.132174
1368,0.131836
1359,0.131681
1350,0.131619
1341,0.131526
1332,0.131557
1323,0.131663
1314,0.131833
1305,0.132133
1296,0.132454
1287,0.132972
1278,0.133671
1269,0.1345
1260,0.135484
1251,0.136699
1242,0.138047
1233,0.139548
1224,0.141233
1215,0.143173
1206,0.145438
1197,0.147721
1188,0.15049
1179,0.153326
1170,0.156224
1161,0.159139
1152,0.162221
1143,0.165754
1134,0.169914
1125,0.174677
1116,0.179814
1107,0.184785
1098,0.188895
1089,0.191746
1080,0.193505
1071,0.195078
1062,0.197259
1053,0.200268
1044,0.203689
1035,0.206496
1026,0.2078
1017,0.207446
1008,0.205902
999,0.203682
990,0.200717
981,0.197368
972,0.194273
963,0.191619
954,0.188931
945,0.186039
936,0.182634
927,0.179167
918,0.175674
909,0.171878
900,0.168659
891,0.162842
882,0.167535
873,0.164102
864,0.162183
855,0.160316
846,0.159554
837,0.15983
828,0.160882
819,0.161791
810,0.163555
801,0.16569
792,0.167808
783,0.169625
774,0.172295
765,0.175869
756,0.180994
747,0.184924
738,0.186975
729,0.187769
720,0.188739
711,0.19038
702,0.191613
693,0.190853
684,0.189441
675,0.187959
666,0.186088
657,0.184894
648,0.183767
639,0.182409
630,0.181423
621,0.18064
612,0.180436
603,0.1819
594,0.184272
585,0.185741
576,0.186396
567,0.189558
558,0.194014
549,0.194605
540,0.193455
531,0.196359
522,0.199513
513,0.199919
504,0.202322
495,0.207357
486,0.207149
477,0.206278
468,0.210874
459,0.20949
450,0.209691
441,0.213692
432,0.21556
423,0.219767
414,0.221556
405,0.225476
396,0.23061
387,0.2339
378,0.240416
369,0.247561
360,0.252503
351,0.262236
342,0.26762
333,0.277618
324,0.288651
315,0.304758
306,0.322857
297,0.344318
288,0.368256
279,0.38895
270,0.397502
261,0.391948
252,0.375899
243,0.345158
234,0.314982
225,0.30442
216,0.399142
207,0.573506
200,0.553378